$comment
No msched A

Taken from Igor

wswgG 2012.11.29

Dat-file is based on one of the o12 dat-files from Kostya.

Data is taken from:
1. Initial condition - from FlyEx database

2.1. Experimental data for Hb, Kr, Gt, Kni in wild type embryo - from FlyEx database:

for cycle 13 and time class 1 from 14A cycle - 10% strip without background
for time classes 2-8 from 14A cycle - 10% strip registered by SpA without background

2.2. Experimental data for Hb, Gt, Kni in Kr- embryo - from Kostya:

3. Experimental data for ''averaged'' Bcd - from Kostya

4. Experimental data for Bcd, Cad, Tll - from both FlyEx and Kostya:

for Tll in cycle 11 - from Kostya

for Bcd, Cad in cycles 11-14A, Tll in cycles 12-14A - from FlyEx:
 - cycles 11-14A TC1 - without background
 - time classes 2-8 from 14A cycle - 10% strip registered by SpA without background


*********** IMPORTANT ! ! ! ***********

Bcd is supposed to be variable in time.

***************************************

$$

$problem
number_of_genes
8
gene_IDs:
HKGNhkgn
number_of_ext
8
external_gene
BCTJHKGN
number_of_mat
1
maternal_gene
B
ncouples
2
couples
HH_KH
number_of_cell_devisions
1
numbers_of_nuclei
58
diffusion_schedule
B
mob_schedule:
A
$$

$acid_tables
fasta_sequences:
seqs.fa
annotated_sites:
seq_arina_new4.ann
postional_weight_matrix:
tf8.pcm
$$

$genotypes
gt3	bias	full_facts_wt	full_bcd_wt	hist_wt	external_eight_tab	WWWWWWWW
$$

Kr_mutant	bias	full_facts_mut	full_bcd_wt	hist_wt	full_facts_externals	WRWW

$input
promoter_strengths:
 15.00  15.00  15.00  15.00  1.00  1.00  1.00  1.00 
genetic_interconnect_matrix:
     5.606757000     -0.484305000   -347.791428000   -967.086234000 0 0 0 0
  2850.343110000     25.010687000  -1156.775240000     53.437038000 0 0 0 0
 -1770.034358000  -1174.260749000   2921.887678000  -5292.997180000 0 0 0 0
    -2.638830000     -0.003153000  -1000.254897000   1033.465597000 0 0 0 0
0 0 0 0 0 0 0 0
0 0 0 0 0 0 0 0
0 0 0 0 0 0 0 0
0 0 0 0 0 0 0 0
external_input_strengths:
  1139.444405000   -159.896217000   1717.441991000 1 1 1 1 1
   789.478638000     21.796957000      1.000000000 1 1 1 1 1
   132.185310000    755.022920000      1.000000000 1 1 1 1 1
   -35.947273000     51.393381000      1.000000000 1 1 1 1 1
0 0 0 1 1 1 1 1
0 0 0 1 1 1 1 1
0 0 0 1 1 1 1 1
0 0 0 1 1 1 1 1
maternal_connection_strengths:
 0
 0
 0
 0
 0
 0
 0
 0
couples:
     0.027932000      0.049876000
     0.049942000      0.049997000 
     0.003138000      0.022991000
     0.041861000      4.971500000 
     2.072257000      3.997071000
     0.000000000      1.603483000 
     5.000000000      1.129681000
     0.500000000      0.500000000
promoter_thresholds:
 0.007166000      0.002692000      0.012248000      0.006019000  0.0001  0.0001  0.0001  0.0001 
diffusion_parameter(s):
  0.15   0.15   0.15   0.15   0.015   0.015   0.015   0.015 
protein_half_lives:
  17.996918000     17.636137000     17.903813000     16.274817000   17.996918000     17.636137000     17.903813000     16.274817000
translational_transcriptional_delays:
  0   0   0   0   0   0   0   0 
mobility:
  01.478116000
mitosis_mobility:
  1.100000000
$$

$tweak
Parameters correspond to eqparms: 1 means tweak, 0 means don't.
promoter_strengths:
 0 0 0 0 0 0 0 0
genetic_interconnect_matrix:
 0 1 1 1 0 1 1 1
 1 0 1 1 0 1 1 1
 1 1 0 1 0 1 1 1
 1 1 1 0 0 1 1 1
 0 1 1 1 0 1 1 1
 1 0 1 1 0 1 1 1
 1 1 0 1 0 1 1 1
 1 1 1 0 0 1 1 1
external:
 1 1 1 1 0 0 0 0
 1 1 1 1 0 0 0 0
 1 1 1 1 0 0 0 0
 1 1 1 1 0 0 0 0
 1 1 1 0 0 0 0 0
 1 1 1 0 0 0 0 0
 1 1 1 0 0 0 0 0
 1 1 1 0 0 0 0 0
maternal_connection_strengths:
0
0
0
0
0
0
0
0
couples:
1 1
1 1
1 1
1 1
1 1
1 1
1 1
0 0
promoter_thresholds:
 0 0 0 0 0 0 0 0
diffusion_parameters:
 0 0 0 0 0 0 0 0
protein_half_lives:
 1 1 1 1 0 0 0 0
tau_parameters:
 0 0 0 0 0 0 0 0
mobility:
 0
mitosis_mobility:
 0
$$

$limits
Lambda_for_penalty:
0.001
promoter_strength_ranges:
(0.0, 3000.0) (0.0, 3000.0) (0.0, 3000.0) (0.0, 3000.0) (0.0, 3000.0) (0.0, 3000.0) (0.0, 3000.0) (0.0, 3000.0)
interconnect_matrix_ranges:
N/A
interconnect_matrix_ranges:
N/A
maternal_connection_ranges:
N/A
couples_ranges:
N/A
promotor_threshold_ranges:
N/A
diffusion_parameter_range(s):
(0.0, 1.0) (0.0, 1.0) (0.0, 1.0) (0.0, 1.0) (0.0, 1.0) (0.0, 1.0) (0.0, 1.0) (0.0, 1.0)
protein_half_life_ranges:
(1, 25) (1, 25) (1, 25) (1, 25) (0.0000001, 25) (0.0000001, 25) (0.0000001, 25) (0.0000001, 25)
tau_ranges:
(0, 8) (0, 8) (0, 8) (0, 8) (-5, 0) (-5, 0) (-5, 0) (-5, 0)
mobility_ranges:
(50, 500)
mitosis_mobility_ranges:
(0, 50)
$$

$detailed_limits
Lambda_for_penalty:
N/A
promoter_strength_ranges:
(0.0, 3000.0) (0.0, 3000.0) (0.0, 3000.0) (0.0, 3000.0) (0.0, 3000.0) (0.0, 3000.0) (0.0, 3000.0) (0.0, 3000.0)
interconnect_matrix_ranges:
(-3000.0, 3000.0) (-3000.0, 3000.0) (-3000.0, 3000.0) (-3000.0, 3000.0) (-3000.0, 3000.0) (-3000.0, 3000.0) (-3000.0, 3000.0) (-3000.0, 3000.0)
(-3000.0, 3000.0) (-3000.0, 3000.0) (-3000.0, 3000.0) (-3000.0, 3000.0) (-3000.0, 3000.0) (-3000.0, 3000.0) (-3000.0, 3000.0) (-3000.0, 3000.0)
(-3000.0, 3000.0) (-3000.0, 3000.0) (-3000.0, 3000.0) (-3000.0, 3000.0) (-3000.0, 3000.0) (-3000.0, 3000.0) (-3000.0, 3000.0) (-3000.0, 3000.0)
(-3000.0, 3000.0) (-3000.0, 3000.0) (-3000.0, 3000.0) (-3000.0, 3000.0) (-3000.0, 3000.0) (-3000.0, 3000.0) (-3000.0, 3000.0) (-3000.0, 3000.0)
(-3000.0, 3000.0) (-3000.0, 3000.0) (-3000.0, 3000.0) (-3000.0, 3000.0) (-3000.0, 3000.0) (-3000.0, 3000.0) (-3000.0, 3000.0) (-3000.0, 3000.0)
(-3000.0, 3000.0) (-3000.0, 3000.0) (-3000.0, 3000.0) (-3000.0, 3000.0) (-3000.0, 3000.0) (-3000.0, 3000.0) (-3000.0, 3000.0) (-3000.0, 3000.0)
(-3000.0, 3000.0) (-3000.0, 3000.0) (-3000.0, 3000.0) (-3000.0, 3000.0) (-3000.0, 3000.0) (-3000.0, 3000.0) (-3000.0, 3000.0) (-3000.0, 3000.0)
(-3000.0, 3000.0) (-3000.0, 3000.0) (-3000.0, 3000.0) (-3000.0, 3000.0) (-3000.0, 3000.0) (-3000.0, 3000.0) (-3000.0, 3000.0) (-3000.0, 3000.0)
interconnect_matrix_ranges:
(-3000.0, 3000.0) (-3000.0, 3000.0) (-3000.0, 3000.0) (-3000.0, 3000.0) (-3000.0, 3000.0) (-3000.0, 3000.0) (-3000.0, 3000.0) (-3000.0, 3000.0)
(-3000.0, 3000.0) (-3000.0, 3000.0) (-3000.0, 3000.0) (-3000.0, 3000.0) (-3000.0, 3000.0) (-3000.0, 3000.0) (-3000.0, 3000.0) (-3000.0, 3000.0)
(-3000.0, 3000.0) (-3000.0, 3000.0) (-3000.0, 3000.0) (-3000.0, 3000.0) (-3000.0, 3000.0) (-3000.0, 3000.0) (-3000.0, 3000.0) (-3000.0, 3000.0)
(-3000.0, 3000.0) (-3000.0, 3000.0) (-3000.0, 3000.0) (-3000.0, 3000.0) (-3000.0, 3000.0) (-3000.0, 3000.0) (-3000.0, 3000.0) (-3000.0, 3000.0)
(-3000.0, 3000.0) (-3000.0, 3000.0) (-3000.0, 3000.0) (-3000.0, 3000.0) (-3000.0, 3000.0) (-3000.0, 3000.0) (-3000.0, 3000.0) (-3000.0, 3000.0)
(-3000.0, 3000.0) (-3000.0, 3000.0) (-3000.0, 3000.0) (-3000.0, 3000.0) (-3000.0, 3000.0) (-3000.0, 3000.0) (-3000.0, 3000.0) (-3000.0, 3000.0)
(-3000.0, 3000.0) (-3000.0, 3000.0) (-3000.0, 3000.0) (-3000.0, 3000.0) (-3000.0, 3000.0) (-3000.0, 3000.0) (-3000.0, 3000.0) (-3000.0, 3000.0)
(-3000.0, 3000.0) (-3000.0, 3000.0) (-3000.0, 3000.0) (-3000.0, 3000.0) (-3000.0, 3000.0) (-3000.0, 3000.0) (-3000.0, 3000.0) (-3000.0, 3000.0)
maternal_connection_ranges:
(-3000.0, 3000.0)
(-3000.0, 3000.0)
(-3000.0, 3000.0)
(-3000.0, 3000.0)
(-3000.0, 3000.0)
(-3000.0, 3000.0)
(-3000.0, 3000.0)
(-3000.0, 3000.0)
couples_ranges:
(0.0, 3000.0) (0.0, 3000.0)
(0.0, 3000.0) (0.0, 3000.0)
(0.0, 3000.0) (0.0, 3000.0)
(0.0, 3000.0) (0.0, 3000.0)
(0.0, 3000.0) (0.0, 3000.0)
(0.0, 3000.0) (0.0, 3000.0)
(0.0, 3000.0) (0.0, 3000.0)
(0.0, 3000.0) (0.0, 3000.0)
promotor_threshold_ranges:
(0.0, 3000.0) (0.0, 3000.0) (0.0, 3000.0) (0.0, 3000.0) (0.0, 3000.0) (0.0, 3000.0) (0.0, 3000.0) (0.0, 3000.0)
diffusion_parameter_range(s):
(0.0, 1.0) (0.0, 1.0) (0.0, 1.0) (0.0, 1.0) (0.0, 1.0) (0.0, 1.0) (0.0, 1.0) (0.0, 1.0)
protein_half_life_ranges:
(1, 25) (1, 25) (1, 25) (1, 25) (0.00001, 5) (0.00001, 5) (0.00001, 5) (0.00001, 5)
tau_ranges:
(0, 8) (0, 8) (0, 8) (0, 8) (-5, 0) (-5, 0) (-5, 0) (-5, 0)
mobility_ranges:
(50, 500)
mitosis_mobility_ranges:
(0, 50)
$$

$alltime_ignore
9
10.550
24.2250
30.4750
36.7250
42.9750
49.2250
55.4750
61.7250
67.9750
$$

$xtime_ignore
3
10.550
24.2250
30.4750
$$

$ytime_ignore
6
10.550
30.475
42.9750
49.2250
55.4750
67.975
$$

$4time_ignore
4
10.550
42.9750
49.2250
67.975
$$

$scoring_window
4113 4142
8227 8284
$$

$45scoring_window
4120 4142
8240 8284
$$

$100scoring_window
4096 4145
8192 8291
$$

$bias

lin t hb Kr gt kni hb Kr gt kni

4113   0.000   49.822   0.000   0.000   0.000   0.000   0.000   0.000 0.000
4114   0.000   45.991   0.000   0.000   0.000   0.000   0.000   0.000 0.000
4115   0.000   43.974   0.000   0.000   0.000   0.000   0.000   0.000 0.000
4116   0.000   38.058   0.000   0.000   0.000   0.000   0.000   0.000 0.000
4117   0.000   35.644   0.000   0.000   0.000   0.000   0.000   0.000 0.000
4118   0.000   29.269   0.000   0.000   0.000   0.000   0.000   0.000 0.000
4119   0.000   26.156   0.000   0.000   0.000   0.000   0.000   0.000 0.000
4120   0.000   18.742   0.000   0.000   0.000   0.000   0.000   0.000 0.000
4121   0.000   15.996   0.000   0.000   0.000   0.000   0.000   0.000 0.000
4122   0.000   11.536   0.000   0.000   0.000   0.000   0.000   0.000 0.000
4123   0.000   10.148   0.000   0.000   0.000   0.000   0.000   0.000 0.000
4124   0.000   6.916   0.000   0.000   0.000   0.000   0.000   0.000 0.000
4125   0.000   5.898   0.000   0.000   0.000   0.000   0.000   0.000 0.000
4126   0.000   3.691   0.000   0.000   0.000   0.000   0.000   0.000 0.000
4127   0.000   3.143   0.000   0.000   0.000   0.000   0.000   0.000 0.000
4128   0.000   1.856   0.000   0.000   0.000   0.000   0.000   0.000 0.000
4129   0.000   1.552   0.000   0.000   0.000   0.000   0.000   0.000 0.000
4130   0.000   1.022   0.000   0.000   0.000   0.000   0.000   0.000 0.000
4131   0.000   0.863   0.000   0.000   0.000   0.000   0.000   0.000 0.000
4132   0.000   0.410   0.000   0.000   0.000   0.000   0.000   0.000 0.000
4133   0.000   0.277   0.000   0.000   0.000   0.000   0.000   0.000 0.000
4134   0.000   0.000   0.000   0.000   0.000   0.000   0.000   0.000 0.000
4135   0.000   0.000   0.000   0.000   0.000   0.000   0.000   0.000 0.000
4136   0.000   0.000   0.000   0.000   0.000   0.000   0.000   0.000 0.000
4137   0.000   0.000   0.000   0.000   0.000   0.000   0.000   0.000 0.000
4138   0.000   0.000   0.000   0.000   0.000   0.000   0.000   0.000 0.000
4139   0.000   0.000   0.000   0.000   0.000   0.000   0.000   0.000 0.000
4140   0.000   0.057   0.000   0.000   0.000   0.000   0.000   0.000 0.000
4141   0.000   0.057   0.000   0.000   0.000   0.000   0.000   0.000 0.000
4142   0.000   0.283   0.000   0.000   0.000   0.000   0.000   0.000 0.000

$$


$full_facts_wt

lin	t	hb	Kr	gt	kni	mhb	mKr	mgt	mkni

4113 10.55 80.13 4.75 20.29 1.42 130.56 0 103.74 0
4114 10.55 76.01 6.46 17.92 1.78 133.65 0 98.88 0
4115 10.55 70.56 8.31 14.7 0 136.74 0 78.18 0
4116 10.55 63.68 10.49 10.94 1.31 139.42 0 48.74 0
4117 10.55 57.16 13.13 7.1 2.15 130.43 0.79 19.75 0
4118 10.55 48.19 16.1 4.8 1.71 103.55 16.15 1.85 0
4119 10.55 39.78 19.23 3.94 1.79 67.11 49.53 0 0
4120 10.55 30.64 22.33 3.25 2.55 30.69 88.23 0 0
4121 10.55 23.22 23.8 2.84 5.13 4.62 115.77 0 0
4122 10.55 17.11 25.09 3.09 6.91 0 118.49 0 0
4123 10.55 13.36 25.8 3.29 10.91 0 115.21 0 2.52
4124 10.55 9.99 24.11 3.54 15.62 0 100.6 0 22.34
4125 10.55 7.24 21.56 3.1 24.34 0 73.59 0 54.24
4126 10.55 5.31 18.89 3.46 33.33 0 42.74 0 85.44
4127 10.55 3.83 14.84 4.08 42.46 0 16 0 103.77
4128 10.55 2.75 12.05 4.41 49.62 0 1.25 0 103.75
4129 10.55 1.93 10.12 5.88 47.93 0 0 0 101.3
4130 10.55 1.23 7.08 7.93 45.96 0 0 0.34 96.86
4131 10.55 0.8 5.02 7.84 46.14 0 0 8.16 75.51
4132 10.55 0.36 3.62 10 36.44 0 0 25.8 42.33
4133 10.55 0 2 9.94 29.84 0 0 47.47 12.47
4134 10.55 0 1.19 12.67 21.27 0 0 67.7 0
4135 10.55 0 0.62 15.49 17.16 0 0 81.62 0
4136 10.55 0 0 17.05 10.75 0 0 84.11 0
4137 10.55 0 0 16.91 9.76 0 0 81.65 0
4138 10.55 0 0 17.44 9.28 0 0 79.2 0
4139 10.55 0 0 18.94 11.02 0.68 0 76.74 0
4140 10.55 0 0.04 18.21 12.3 -1 -1 -1 -1
4141 10.55 0 0.74 18.14 10.94 -1 -1 -1 -1
4142 10.55 0 0.86 17.48 9.66 -1 -1 -1 -1

8227 24.225 136.58 9.56 55.8 0.25 159.89 0 148.7 0
8228 24.225 132.55 12.15 48.68 0 161.77 0 146.09 0
8229 24.225 127.89 14.32 41.44 0 163.65 0 134.47 0
8230 24.225 123.35 17.72 34.72 0 165.54 0 115.97 0
8231 24.225 119.45 21.85 26.65 0.08 164.81 0 92.9 0
8232 24.225 112.31 27.24 21.23 0.23 158.26 0 67.69 0
8233 24.225 104.02 32.77 15.06 0 146.76 0.27 42.87 0
8234 24.225 95.34 39.42 11.02 0.19 131.29 7.98 21.07 0
8235 24.225 86.09 46.49 7.75 0 112.88 24.64 5.07 0
8236 24.225 75.35 54.6 5.06 0.27 92.59 47.86 0 0
8237 24.225 64.48 62.14 3.61 0.14 71.55 75.15 0 0
8238 24.225 54.31 67.99 2.9 0.1 50.94 103.91 0 0
8239 24.225 45.23 75.3 2.1 0.27 31.96 131.4 0 0
8240 24.225 36.12 81.64 1.34 0.82 15.9 154.8 0 0
8241 24.225 28.34 86.81 0.94 2.04 4.06 171.16 0 0
8242 24.225 22.03 92.03 0.8 2.01 0 173.19 0 0
8243 24.225 17.23 94.53 0.37 3.19 0 171.44 0 0
8244 24.225 13.25 95.09 0.55 4.74 0 169.69 0 0
8245 24.225 10.38 96.97 0.46 8.47 0 167.94 0 3.56
8246 24.225 7.89 96.21 0.3 9.74 0 165.75 0 16.68
8247 24.225 5.94 95.29 0.02 14.47 0 157.09 0 36.75
8248 24.225 4.66 91.39 0 20.24 0 141.67 0 60.98
8249 24.225 3.45 87.12 0 27.41 0 121.48 0 86.72
8250 24.225 2.6 80.54 0 35.42 0 98.43 0 111.41
8251 24.225 1.78 72.98 0 43.34 0 74.37 0 132.62
8252 24.225 1.18 64.82 0.01 52.9 0 51.05 0 147.99
8253 24.225 0.72 55.85 0.33 60.34 0 30.17 0 153.95
8254 24.225 0.28 47.65 0.92 65.79 0 13.33 0 152.2
8255 24.225 0 38.91 1.7 72.82 0 2.05 0 150.45
8256 24.225 0 31.46 3.41 74.57 0 0 0 148.7
8257 24.225 0 24.4 4.97 75.59 0 0 0 146.95
8258 24.225 0 18.83 7.1 75.47 0 0 0.05 145.15
8259 24.225 0 15.05 10.14 74.89 0 0 6.72 137.66
8260 24.225 0 11.56 14.78 72.44 0 0 22.25 122.39
8261 24.225 0 9.11 17.99 67.3 0 0 43.45 101.89
8262 24.225 0 7.14 22.63 61.57 0 0 67.25 78.62
8263 24.225 0 5.67 29.46 55.64 0 0 90.76 54.89
8264 24.225 0 4.28 33.53 49.27 0 0 111.21 32.93
8265 24.225 0 3.3 39.87 41.11 0 0 125.97 14.83
8266 24.225 0 2.27 45.64 33.59 0 0 131.2 2.59
8267 24.225 0 1.91 51.32 27.66 0 0 129.45 0
8268 24.225 0 1.49 55.86 22.22 0 0 127.7 0
8269 24.225 0 1.12 59.33 16.94 0 0 125.96 0
8270 24.225 0 0.62 61.94 12.62 0 0 123.34 0
8271 24.225 0 0.6 63.25 10.38 0 0 115.11 0
8272 24.225 0 0.35 65.71 7.1 0 0 101.98 0
8273 24.225 0.17 0 64.04 5.81 0.01 0 85.57 0
8274 24.225 0.41 0 63.03 4.27 5.07 0 67.44 0
8275 24.225 0.91 0 60.55 3.05 17.45 0 49.06 0
8276 24.225 1.46 0 56.28 2.55 34.6 0 31.81 0
8277 24.225 1.84 0 52.03 1.76 54.11 0 17 0
8278 24.225 2.35 0 48.48 1.35 73.71 0 5.85 0
8279 24.225 2.83 0.12 44.33 1.44 91.27 0 0 0
8280 24.225 3.46 0.09 40.9 1.22 -1 -1 -1 -1
8281 24.225 4.04 0.36 37.6 0.76 -1 -1 -1 -1
8282 24.225 4.5 0.5 33.77 0.76 -1 -1 -1 -1
8283 24.225 4.96 0.44 29.99 0.7 -1 -1 -1 -1
8284 24.225 5.21 0.52 26.61 0.01 -1 -1 -1 -1

8227 30.475 164.38 9.22 92.64 0.07 166.81 0 152.75 0
8228 30.475 161.42 12.17 79.73 0 168.78 0 139.39 0
8229 30.475 158.63 15.63 64.96 0.08 170.74 0 120.22 0
8230 30.475 152.64 19.99 50.62 0 172.7 0 97.19 0
8231 30.475 148.28 26.48 37.38 0.16 174.66 0 72.33 0
8232 30.475 140.58 33.59 26.11 0.8 176.53 0 47.78 0
8233 30.475 130.04 42.4 18.1 0.49 171.77 5.92 25.77 0
8234 30.475 118 53.5 12.61 0.97 157.92 21.91 8.63 0
8235 30.475 102.68 65.47 8.69 1.1 137.12 45.47 0 0
8236 30.475 86.95 79.86 6.48 1.28 111.6 73.96 0 0
8237 30.475 72.37 92.79 4.61 1.5 83.72 104.64 0 0
8238 30.475 56.2 104.83 3.58 1.15 55.92 134.65 0 0
8239 30.475 43.28 115.04 2.84 1.74 30.77 160.98 0 0
8240 30.475 32.23 124.76 1.97 2.31 10.91 180.53 0 0
8241 30.475 24.17 131.11 1.65 2.45 0 187.38 0 0
8242 30.475 18.25 133.27 1.24 3.4 0 187.38 0 0
8243 30.475 13.75 136.41 0.77 4.53 0 185.48 0 0
8244 30.475 10.36 137.16 0.6 5.91 0 183.59 0 0
8245 30.475 7.64 135.86 0.75 9.42 0 177.94 0 0
8246 30.475 5.78 131.79 0.76 13.7 0 165.41 0 0.89
8247 30.475 4.5 125.5 0.37 20.55 0 147.66 0 10.84
8248 30.475 3.4 117.62 0 29.56 0 126.3 0 29.37
8249 30.475 2.36 108.62 0.09 41.41 0 102.89 0 53.53
8250 30.475 1.66 98.44 0 54.07 0 78.91 0 80.45
8251 30.475 1.15 83.94 0 68.82 0 55.8 0 107.42
8252 30.475 0.77 70.44 0 83.7 0 34.91 0 131.81
8253 30.475 0.43 57.43 0 97.76 0 17.56 0 151.12
8254 30.475 0.02 45.44 0.23 109.54 0 4.98 0 162.96
8255 30.475 0 35.24 1.19 116.13 0 0 0 162.77
8256 30.475 0 26.74 2.59 120.8 0 0 0 160.88
8257 30.475 0 20.39 5.32 121.37 0 0 0 158.99
8258 30.475 0 14.69 9.14 119.05 0 0 0 155.15
8259 30.475 0 10.9 14.19 114.27 0 0 3.61 144.03
8260 30.475 0 7.85 21.16 106.43 0 0 19.77 127.14
8261 30.475 0 5.78 30.69 95.84 0 0 44.54 106.4
8262 30.475 0 4.09 39.67 82.02 0 0 73.32 83.68
8263 30.475 0 2.71 48.48 70.77 0 0 101.71 60.75
8264 30.475 0 2.02 57.46 58.57 0 0 125.53 39.28
8265 30.475 0 1.44 65.28 46.43 0 0 140.84 20.87
8266 30.475 0 0.71 71.63 35.76 0 0 141.95 7.04
8267 30.475 0 0.45 76.75 29.18 0 0 140.06 0
8268 30.475 0 0.22 79.08 23.03 0 0 136.54 0
8269 30.475 0 0.16 80.41 17.19 0 0 124.41 0
8270 30.475 0 0 78.17 14.27 3.12 0 105.41 0
8271 30.475 0.59 0 74.45 10.5 15.3 0 82.44 0
8272 30.475 1.45 0 69.57 8.81 33.82 0 58.21 0
8273 30.475 2.32 0 63.31 7.22 55.76 0 35.3 0
8274 30.475 3.89 0 56.67 6.12 78.35 0 16.17 0
8275 30.475 5.22 0 49.52 5.2 98.97 0 3.08 0
8276 30.475 6.59 0.03 44.1 4.17 115.15 0 0 0
8277 30.475 7.72 0.05 38.34 3.32 124.6 0 0 0
8278 30.475 8.63 0.09 33.27 3.02 123.64 0 0 0
8279 30.475 9.4 0 28.13 2.76 121.67 0 0 0
8280 30.475 9.45 0 24.31 1.97 -1 -1 -1 -1
8281 30.475 10.18 0.07 19.9 1.75 -1 -1 -1 -1
8282 30.475 10.02 0.07 16.65 1.44 -1 -1 -1 -1
8283 30.475 9.53 0.22 13.8 0.9 -1 -1 -1 -1
8284 30.475 9.82 0.34 11.14 0.73 -1 -1 -1 -1

8227 36.725 193.79 5.18 137.35 0 169.88 0 162.91 0
8228 36.725 190.73 6.96 119.99 0 171.88 0 146.29 0
8229 36.725 188.05 9 98.37 0 173.88 0 119.87 0
8230 36.725 184.31 11.54 75.02 0 175.88 0 87.91 0
8231 36.725 179.98 15.68 53.78 0 177.88 0 54.89 0
8232 36.725 173.38 22.04 35.84 0 179.88 0 25.49 0
8233 36.725 166.03 31.75 23.55 0 181.88 0 4.62 0
8234 36.725 154.49 43.54 15.69 0 183.68 4.55 0 0
8235 36.725 139.2 59.59 10.28 0 172.74 17.73 0 0
8236 36.725 120.09 78.35 6.33 0 145.74 37.74 0 0
8237 36.725 96.92 100.32 4.47 0 108.89 62.74 0 0
8238 36.725 75.63 118.81 3.1 0 68.7 90.76 0 0
8239 36.725 56.39 134.89 2 0 31.94 119.77 0 0
8240 36.725 40.12 148.22 1.65 0 5.67 147.64 0 0
8241 36.725 29.13 155.99 1.19 0.41 0 172.16 0 0
8242 36.725 21.18 159.66 0.76 1.57 0 189.11 0 0
8243 36.725 15.48 162.07 0.56 3.16 0 193.68 0 0
8244 36.725 10.83 162.45 0.33 5.27 0 191.7 0 0
8245 36.725 7.62 161.49 0.22 8.68 0 189.73 0 0
8246 36.725 5.73 157.9 0.07 14.8 0 187.75 0 0
8247 36.725 3.83 152.67 0 24.28 0 185.16 0 6.2
8248 36.725 2.79 144.47 0 37.82 0 174.21 0 24.21
8249 36.725 1.99 132.68 0 53.63 0 154.78 0 50.14
8250 36.725 1.22 116.72 0 74.13 0 129.62 0 80.22
8251 36.725 0.7 97.61 0 95.89 0 101.34 0 110.81
8252 36.725 0.24 78.43 0 117.02 0 72.49 0 138.47
8253 36.725 0.11 58.99 0 136.13 0 45.48 0 159.87
8254 36.725 0 43.05 0 149.68 0 22.61 0 171.86
8255 36.725 0 30.49 1.33 157.06 0 6.09 0 169.97
8256 36.725 0 21.05 4.3 159.2 0 0 0 167.99
8257 36.725 0 14.98 10.48 156.38 0 0 6.06 166.01
8258 36.725 0 10.31 19.02 149.96 0 0 27.29 163.99
8259 36.725 0 7.22 31.2 136.46 0 0 57.8 155.19
8260 36.725 0 5.23 45.34 118.34 0 0 91.55 137.07
8261 36.725 0 3.79 61.3 99.36 0 0 122.78 112.82
8262 36.725 0 2.75 75.71 81.61 0 0 146.01 85.46
8263 36.725 0 1.92 90.02 62.85 0 0 154.15 57.88
8264 36.725 0 1.36 100.38 48.55 0 0 152.18 32.84
8265 36.725 0 0.98 106.63 37.76 0 0 150.18 12.94
8266 36.725 0 0.57 110.61 29.01 0 0 141.92 0.65
8267 36.725 0 0.34 109.13 21.74 0 0 124.79 0
8268 36.725 0.42 0.27 105.78 16.24 0 0 101.91 0
8269 36.725 1.93 0.21 98.74 11.82 4.24 0 76.23 0
8270 36.725 4.25 0.08 88.7 9.01 17.69 0 50.58 0
8271 36.725 6.79 0.07 78.71 6.69 37.32 0 27.61 0
8272 36.725 10.62 0.13 69.42 5.4 60.16 0 9.83 0
8273 36.725 14.19 0.29 59.27 4.44 83.38 0 0 0
8274 36.725 17.36 0.27 50.82 3.8 104.32 0 0 0
8275 36.725 20.07 0.3 42.26 3.08 120.48 0 0 0
8276 36.725 22.89 0.37 35.34 2.46 129.51 0 0 0
8277 36.725 24.23 0.29 28.92 2.06 127.91 0 0 0
8278 36.725 24.7 0.28 24.22 1.63 125.91 0 0 0
8279 36.725 24.38 0.15 19.02 1.6 123.33 0 0 0
8280 36.725 23.38 0.22 15.15 1.44 -1 -1 -1 -1
8281 36.725 21.71 0.05 12.24 1.4 -1 -1 -1 -1
8282 36.725 19.83 0.02 8.6 1.17 -1 -1 -1 -1
8283 36.725 17.5 0 5.79 0.69 -1 -1 -1 -1
8284 36.725 14.77 0 3.69 0.48 -1 -1 -1 -1

8227 42.975 201.48 5.06 176.19 0 135.28 0 163.11 0
8228 42.975 201.18 6.09 159.44 0 136.88 0 145.09 0
8229 42.975 199.62 7.89 131.7 0 138.47 0 117.9 0
8230 42.975 199.76 10.79 100.07 0 140.06 0 85.72 0
8231 42.975 199.08 15.03 68.15 0.26 141.67 0 52.91 0
8232 42.975 197.37 21.13 42.46 0.44 146.31 3.41 24.03 0
8233 42.975 194.52 31.74 23.75 1.55 154.88 15.2 3.87 0
8234 42.975 185.34 46.52 13.94 1.38 165.49 33.83 0 0
8235 42.975 172.92 67.56 7.81 1.16 176.18 57.56 0 0
8236 42.975 155.09 92.09 4.94 1.54 184.92 84.55 0 0
8237 42.975 129.31 120.58 2.97 1.06 189 112.9 0 0
8238 42.975 103.12 147.02 2.01 0.93 149.24 140.61 0 0
8239 42.975 78.35 165.82 1.56 1.47 108.12 165.61 0 0
8240 42.975 54.03 178.12 1.25 2.04 63.55 185.74 0 0
8241 42.975 36.37 185.18 1.22 3.61 24.53 198.03 0 0
8242 42.975 24.88 190.17 0.77 4.61 0.45 198.03 0 0
8243 42.975 16.93 192.56 0.39 6.02 0 196.03 0 0
8244 42.975 11.36 194.16 0.31 8.15 0 194.03 0 0
8245 42.975 7.86 192.41 0.13 12.52 0 192.03 0 0.01
8246 42.975 5.6 190.27 0 19.24 0 185.85 0 7.82
8247 42.975 3.65 185.02 0 30.5 0 170.45 0 27.3
8248 42.975 2.52 175.76 0 45.97 0 148.3 0 54.46
8249 42.975 1.6 162.51 0 64.87 0 121.83 0 85.47
8250 42.975 0.97 144.95 0 92.43 0 93.41 0 116.65
8251 42.975 0.43 122.3 0 123.41 0 65.29 0 144.47
8252 42.975 0.14 96.92 0 149.66 0 39.63 0 165.57
8253 42.975 0 71.45 0 171.48 0 18.49 0 176.03
8254 42.975 0 49.75 0 185.62 0 3.85 0 174.03
8255 42.975 0 33.49 0.03 192.35 0 0 0 172.03
8256 42.975 0 22.69 3.17 193.72 0 0 0.18 170.03
8257 42.975 0 15.5 9.67 186.77 0 0 13.11 158.5
8258 42.975 0 10.89 20.38 175.7 0 0 40.96 129.76
8259 42.975 0 7.67 38.28 158.92 0 0 76.28 91.92
8260 42.975 0 5.55 61.26 137.31 0 0 111.98 52.82
8261 42.975 0 3.97 88.21 112.66 0 0 141.31 19.94
8262 42.975 0 2.81 111.38 87.19 0 0 157.81 0.36
8263 42.975 0 2.24 129.75 67.55 0 0 156.03 0
8264 42.975 0 1.93 141 51.31 0 0 154.03 0
8265 42.975 0 1.46 148.07 38.96 0 0 152.03 0
8266 42.975 0 1.23 152.34 29.15 0 0 147.8 0
8267 42.975 0.37 0.91 151.33 22.41 0 0 132.32 0
8268 42.975 3.05 0.74 143.83 17.03 2.96 0 108.32 0
8269 42.975 6.62 0.63 132.18 13.11 17.64 0 79.95 0
8270 42.975 11.56 0.64 116.44 9.82 40.55 0 51.14 0
8271 42.975 18.66 0.66 97.22 8.22 67.3 0 25.61 0
8272 42.975 25.56 0.73 77.42 7 93.75 0 6.88 0
8273 42.975 32.68 0.73 60.98 6.37 115.95 0 0 0
8274 42.975 40.37 0.69 46.91 5.53 130.24 0 0 0
8275 42.975 45.92 0.79 37.93 5.27 131.31 0 0 0
8276 42.975 50.42 0.76 29.27 4.75 129.31 0 0 0
8277 42.975 52.85 0.71 23.47 4.11 127.33 0 0 0
8278 42.975 54.11 0.53 18.76 3.31 123.2 0 0 0
8279 42.975 52.83 0.44 14.84 2.78 100.41 0 0 0
8280 42.975 48.38 0.37 11.22 2.11 -1 -1 -1 -1
8281 42.975 43.86 0.14 8.45 1.92 -1 -1 -1 -1
8282 42.975 37.76 0.09 5.72 1.13 -1 -1 -1 -1
8283 42.975 30.75 0 3.65 0.89 -1 -1 -1 -1
8284 42.975 25.57 0 2.3 0.5 -1 -1 -1 -1

8227 49.225 193.06 4.05 189.53 0 131.58 0 165.83 0
8228 49.225 191.9 5.53 168.02 0 133.13 0 150.93 0
8229 49.225 192.19 7.64 136.05 0 134.68 0 121.2 0
8230 49.225 193.34 11.03 98.32 0 136.23 0 83.58 0
8231 49.225 192.71 16.77 60.65 0 137.77 0 45.38 0
8232 49.225 192.3 24.81 33.69 0.14 145.57 0 14.22 0
8233 49.225 189.45 37.81 17.73 0.3 161.4 6.26 0 0
8234 49.225 182.54 56.58 9.12 0.32 175.83 25.26 0 0
8235 49.225 169.05 83.08 5.25 0.07 179.96 53.47 0 0
8236 49.225 149 118.08 3.34 0 181.89 87.1 0 0
8237 49.225 121.56 149.21 2.3 0 156.53 122.24 0 0
8238 49.225 93.58 171.9 1.9 0 91.78 154.75 0 0
8239 49.225 65.43 187.83 1.75 0.49 25.5 180.36 0 0
8240 49.225 42.33 195.35 1.72 1.63 0 192.54 0 0
8241 49.225 28.33 198.66 1.46 2.71 0 194.51 0 0
8242 49.225 18.48 203.18 1.46 3.17 0 194.51 0 0
8243 49.225 12.57 205.91 1.23 4.86 0 192.54 0 0
8244 49.225 8.56 205.12 1.06 8.34 0 190.58 0 0
8245 49.225 5.94 202.57 0.81 16.03 0 185.84 0 5.39
8246 49.225 3.76 197.99 0.67 27.71 0 170.66 0 23.81
8247 49.225 2.4 189.88 0.49 42.62 0 147.39 0 51.07
8248 49.225 1.47 176.29 0.09 62.49 0 119.09 0 82.9
8249 49.225 0.85 159.83 0 86.88 0 88.65 0 115.18
8250 49.225 0.43 139.81 0 122.69 0 58.89 0 143.97
8251 49.225 0.12 112.8 0 157.31 0 32.47 0 165.51
8252 49.225 0 83.74 0 181.91 0 11.96 0 174.86
8253 49.225 0 59.25 0 198.1 0 0 0 172.9
8254 49.225 0 40.23 0 204.16 0 0 0 170.93
8255 49.225 0 25.72 1.16 207.46 0 0 0 168.94
8256 49.225 0 17.42 5.64 204.18 0 0 0.68 155.61
8257 49.225 0 11.63 15.54 196.55 0 0 15.45 126.8
8258 49.225 0 7.66 33.77 180.97 0 0 43.91 89.96
8259 49.225 0 5.25 60.78 156.84 0 0 78.88 52.23
8260 49.225 0 3.62 92.24 124.87 0 0 113.5 20.39
8261 49.225 0 2.48 122.45 95.04 0 0 141.23 0.91
8262 49.225 0 1.81 142.68 69.17 0 0 155.21 0
8263 49.225 0 1.6 157.46 50.29 0 0 153.25 0
8264 49.225 0 1.05 165.87 36.81 0 0 151.28 0
8265 49.225 0 0.87 168.34 27.76 0 0 149.22 0
8266 49.225 0.58 0.48 166.22 20.05 0.55 0 138.97 0
8267 49.225 3.04 0.22 156.81 15.37 12.78 0 118.42 0
8268 49.225 7.13 0.19 141.59 12.16 36.47 0 91.74 0
8269 49.225 13.83 0.11 122.27 9.6 65.75 0 62.94 0
8270 49.225 21.79 0.25 98 7.65 95.04 0 35.79 0
8271 49.225 31.5 0.27 75.64 6.37 119.08 0 13.88 0
8272 49.225 40.86 0.45 55 5.76 132.89 0 0.56 0
8273 49.225 50.07 0.51 40.16 5.11 131.58 0 0 0
8274 49.225 57.06 0.65 30.55 4.38 129.65 0 0 0
8275 49.225 63.39 0.64 23.01 3.7 127.71 0 0 0
8276 49.225 68.69 0.72 18.14 2.94 125.78 0 0 0
8277 49.225 71.72 0.65 14.4 2.46 123.84 0 0 0
8278 49.225 70.61 0.59 11.61 1.85 116.06 0 0 0
8279 49.225 68.01 0.43 8.78 1.33 89.98 0 0 0
8280 49.225 62.27 0.31 6.61 0.65 -1 -1 -1 -1
8281 49.225 54.62 0.16 5.17 0.32 -1 -1 -1 -1
8282 49.225 46.2 0 3.55 0.16 -1 -1 -1 -1
8283 49.225 37 0 1.98 0 -1 -1 -1 -1
8284 49.225 29.1 0 0.64 0 -1 -1 -1 -1

8227 55.475 185.35 4.09 186.17 0 124.8 0 158.54 0
8228 55.475 182.05 5.61 163.18 0 126.27 0 141.1 0
8229 55.475 184.41 8.28 127.66 0 127.74 0 103.15 0
8230 55.475 184.76 11.98 92.73 0 129.21 0 57.55 0
8231 55.475 187.6 17.65 55.25 0.16 130.67 0 17.76 0
8232 55.475 190.3 27.03 30.16 0.27 136.85 0 0 0
8233 55.475 190.27 41.27 15.77 0.21 149.59 8.31 0 0
8234 55.475 188.58 61.99 8.13 0.1 163.05 30.77 0 0
8235 55.475 181.79 91.8 4.19 0 170.68 62.65 0 0
8236 55.475 162.76 126.15 2.52 0 172.52 99.01 0 0
8237 55.475 137.45 157.6 1.66 0 148.44 134.68 0 0
8238 55.475 105.88 182.6 1.2 0 76.77 164.27 0 0
8239 55.475 75.32 199.01 1.29 0.3 10.69 181.34 0 0
8240 55.475 48.59 204.37 1.11 1.56 0 183.21 0 0
8241 55.475 30.76 206.24 1.24 2.69 0 185.08 0 0
8242 55.475 19.67 209.99 1.2 3.37 0 185.08 0 0
8243 55.475 12.82 211.15 1.07 4.87 0 183.21 0 0
8244 55.475 8.31 208.2 0.67 9.06 0 181.34 0 7.53
8245 55.475 5.92 203.84 0.26 17.85 0 179.47 0 30.03
8246 55.475 3.7 197.39 0.2 29.06 0 170.13 0 61.73
8247 55.475 2.56 187.26 0.11 42.78 0 144.85 0 96.96
8248 55.475 1.83 169.17 0 60.11 0 110.02 0 130.29
8249 55.475 1.19 151.81 0 84.29 0 71.97 0 156.51
8250 55.475 0.72 133.02 0 116.78 0 36.76 0 170.12
8251 55.475 0.42 106.45 0 148.3 0 10.2 0 168.25
8252 55.475 0.15 79.22 0 171.6 0 0 0 166.38
8253 55.475 0.18 56.81 0 188.43 0 0 0 164.5
8254 55.475 0 37.4 0 197.98 0 0 0 155.42
8255 55.475 0 24.06 2.47 199.57 0 0 1.3 135.58
8256 55.475 0 15.88 8.76 195.68 0 0 18.52 108.89
8257 55.475 0 10.3 21.38 186.22 0 0 49.25 79.09
8258 55.475 0 6.64 39.97 168.3 0 0 85.44 49.77
8259 55.475 0 4.35 68.32 142.59 0 0 119.4 24.33
8260 55.475 0 3.19 101.21 116.47 0 0 143.83 6.03
8261 55.475 0 2.11 124.14 89.65 0 0 149.56 0
8262 55.475 0 1.49 140.36 61.74 0 0 147.69 0
8263 55.475 0 1.1 151.41 44.48 0 0 145.82 0
8264 55.475 0 0.84 155.68 33.11 1.26 0 141.59 0
8265 55.475 0 0.52 156.45 23.91 13.59 0 126.84 0
8266 55.475 1.4 0.14 151.46 17.57 35.19 0 104.28 0
8267 55.475 4.07 0.02 140.67 13.05 61.51 0 77.66 0
8268 55.475 8.7 0 123.46 9.73 88.19 0 50.5 0
8269 55.475 17.54 0 104.36 7.6 111.11 0 26.2 0
8270 55.475 28.19 0 82.18 6.15 126.38 0 7.92 0
8271 55.475 40.93 0 59.81 5.53 128.47 0 0 0
8272 55.475 54.85 0.25 41.41 5.03 126.64 0 0 0
8273 55.475 66.33 0.4 30.87 4.36 124.8 0 0 0
8274 55.475 77.32 0.35 22.28 3.9 122.97 0 0 0
8275 55.475 85.75 0.39 16.89 3.06 121.13 0 0 0
8276 55.475 90.02 0.4 12.94 2.52 119.29 0 0 0
8277 55.475 92.07 0.25 9.82 1.74 110.37 0 0 0
8278 55.475 89.68 0.27 7.5 1.58 83.94 0 0 0
8279 55.475 81.36 0.25 5.92 1.05 50.11 0 0 0
8280 55.475 71.53 0.02 4.4 0.75 -1 -1 -1 -1
8281 55.475 60.71 0 3.28 0.81 -1 -1 -1 -1
8282 55.475 48.02 0 2.02 0.23 -1 -1 -1 -1
8283 55.475 36.41 0 1.17 0 -1 -1 -1 -1
8284 55.475 26.81 0 0.35 0 -1 -1 -1 -1

8227 61.725 169.21 4.16 193.54 0 114.94 0 145.74 0
8228 61.725 167.37 5.44 164.81 0 116.29 0 138.57 0
8229 61.725 164.45 7.5 128.09 0 117.64 0 108.05 0
8230 61.725 165.33 11.09 89.03 0 119 0 65.86 0
8231 61.725 163.99 16.03 49.95 0.53 120.35 0 25.28 0
8232 61.725 168.42 25.32 26.5 0.62 126.03 0 0.19 0
8233 61.725 177.23 40.61 13.01 0.24 138.87 9.98 0 0
8234 61.725 181.62 64.97 6.62 0 151.84 36.71 0 0
8235 61.725 174.85 98.35 3.75 0 157.2 73.14 0 0
8236 61.725 153.81 131.61 2.21 0 158.89 111.9 0 0
8237 61.725 125.2 158.59 1.71 0 146.45 145.31 0 0
8238 61.725 93.71 184.87 1.37 0 66.53 164.6 0 0
8239 61.725 62.14 193.79 1.5 1.39 0.06 166.31 0 0
8240 61.725 40.22 195.08 1.49 2.45 0 168.03 0 0
8241 61.725 25.86 200.35 1.4 3.01 0 169.74 0 0
8242 61.725 17.25 205.41 1.26 3.79 0 162.39 0 0
8243 61.725 11.07 204.79 1.25 6.01 0 139.32 0 0.03
8244 61.725 7.48 198.78 1.04 13.24 0 107.73 0 8.93
8245 61.725 5.33 190.32 0.66 26.2 0 72.93 0 30.16
8246 61.725 3.52 178.1 0.67 40.67 0 40.02 0 58.8
8247 61.725 2.76 154.74 0.34 53.54 0 13.91 0 90.15
8248 61.725 1.92 134.82 0 70.22 0 0 0 119.67
8249 61.725 1.54 118.38 0 97.58 0 0 0 143.02
8250 61.725 1.11 100.01 0 132.25 0 0 0 156.02
8251 61.725 0.76 76.89 0 161.92 0 0 0 154.31
8252 61.725 0.58 56 0 184.69 0 0 0 152.59
8253 61.725 0.42 37.38 0 196.49 0 0 0 141.22
8254 61.725 0.15 23.61 2.19 193.58 0 0 0 114.35
8255 61.725 0.09 16.01 7.75 187.73 0 0 6.34 79.59
8256 61.725 0 10.44 18.73 180.96 0 0 41.45 44.23
8257 61.725 0 6.75 38.6 165.47 0 0 89.13 15.24
8258 61.725 0 4.62 65.64 142.4 0 0 129.2 0
8259 61.725 0 3.08 96.23 114.66 0 0 140.59 0
8260 61.725 0 2.27 126.13 85.23 0 0 138.88 0
8261 61.725 0 1.89 146.02 59.2 0 0 137.16 0
8262 61.725 0 1.58 156.39 44.13 0 0 131.04 0
8263 61.725 0 1.28 164.37 32.36 0 0 107.91 0
8264 61.725 0 0.93 161.22 22.87 0 0 74.86 0
8265 61.725 0.97 0.43 152.78 16.02 3.75 0 40.34 0
8266 61.725 3.41 0.31 136.9 11.52 18.57 0 12.37 0
8267 61.725 8.2 0.2 118.64 8.47 40.53 0 0 0
8268 61.725 16.18 0.1 99.22 6.32 65.4 0 0 0
8269 61.725 31.1 0.41 75.41 5.36 89.15 0 0 0
8270 61.725 45.9 0.56 53.42 4.78 107.99 0 0 0
8271 61.725 61.15 0.66 37.97 4.19 118.31 0 0 0
8272 61.725 76.98 0.56 26.53 3.67 116.63 0 0 0
8273 61.725 90.1 0.63 17.77 3.09 114.94 0 0 0
8274 61.725 104.89 0.6 12.22 1.98 113.25 0 0 0
8275 61.725 111.21 0.5 8.44 1.1 111.56 0 0 0
8276 61.725 114.63 0.31 6.18 0.54 109.81 0 0 0
8277 61.725 113.02 0.2 4.48 0.07 93.6 0 0 0
8278 61.725 106.44 0.04 2.67 0 61.49 0 0 0
8279 61.725 92.09 0.01 1.82 0 27.04 0 0 0
8280 61.725 74.43 0 0.87 0 -1 -1 -1 -1
8281 61.725 58.47 0 0.32 0 -1 -1 -1 -1
8282 61.725 42.6 0 0 0 -1 -1 -1 -1
8283 61.725 29.52 0 0 0 -1 -1 -1 -1
8284 61.725 19.94 0 0 0 -1 -1 -1 -1

8227 67.975 132.44 4.49 192.6 0 102 0 127.5 0
8228 67.975 129.75 5.41 160.36 0 103.2 0 119.47 0
8229 67.975 126.78 7.36 121.14 0 104.4 0 82.05 0
8230 67.975 126.36 10.44 81.38 0.13 105.6 0 35.05 0
8231 67.975 127.58 14.99 48.07 2.11 106.82 0 1.93 0
8232 67.975 131.02 23.34 26.05 2.49 114.67 2.02 0 0
8233 67.975 139.18 38.04 12.62 1.71 128.27 16.88 0 0
8234 67.975 151.87 65.83 6.21 0.33 138 42.19 0 0
8235 67.975 150.11 105.08 3.66 0.24 139.5 72.98 0 0
8236 67.975 130.83 136.67 2.66 0.18 134.13 104.05 0 0
8237 67.975 102.59 161.98 1.99 0.1 79.62 129.95 0 0
8238 67.975 73.14 183.51 1.87 0.44 15.91 144 0 0
8239 67.975 49.44 189.21 1.73 3.31 0 145.5 0 0
8240 67.975 30.11 192.33 1.85 4.53 0 147 0 0
8241 67.975 18.38 200.43 1.76 4.35 0 148.5 0 0
8242 67.975 10.73 203.13 1.66 4.78 0 148.5 0 0
8243 67.975 6.79 198.72 1.59 8.9 0 137.35 0 0
8244 67.975 4.38 189.32 1.14 21.93 0 101.86 0 0
8245 67.975 2.75 176.69 0.74 36.84 0 56.78 0 6.67
8246 67.975 1.68 152.94 0.33 49.43 0 17.35 0 36.27
8247 67.975 1.14 125.24 0.08 65.88 0 0 0 76.9
8248 67.975 0.82 109.19 0.09 83.64 0 0 0 114.99
8249 67.975 0.49 94.96 0 108.71 0 0 0 137.55
8250 67.975 0.26 75.9 0 135.76 0 0 0 136.5
8251 67.975 0.29 55.49 0 161.31 0 0 0 135
8252 67.975 0.28 36.74 0 178.79 0 0 0 133.5
8253 67.975 0 23.54 0.86 175.26 0 0 0 132
8254 67.975 0 15.88 5.84 165.93 0 0 0 121.9
8255 67.975 0 10.56 16.03 164.85 0 0 3.41 92.61
8256 67.975 0 6.75 34.38 153.46 0 0 20.68 55.25
8257 67.975 0 4.6 58.52 134.78 0 0 46.86 20.94
8258 67.975 0 3.08 84.85 110.04 0 0 75.76 0.31
8259 67.975 0 2.21 108.76 87.13 0 0 101.49 0
8260 67.975 0 1.87 132.72 61.05 0 0 118.43 0
8261 67.975 0 1.63 148.53 45.76 0 0 120 0
8262 67.975 0 1.37 156.28 33.81 0 0 118.5 0
8263 67.975 0 0.86 157.36 25.3 0 0 109.32 0
8264 67.975 0 0.4 149.27 17.66 0.83 0 86.46 0
8265 67.975 0.45 0.04 129.47 12.4 8.77 0 57.17 0
8266 67.975 2.63 0 111.86 8.71 22.96 0 28.38 0
8267 67.975 8.07 0 93.15 6.55 40.86 0 6.71 0
8268 67.975 18.66 0 73.68 5.65 60.02 0 0 0
8269 67.975 34.04 0.05 53.95 5.49 78.14 0 0 0
8270 67.975 51.67 0.2 36.18 4.93 93.03 0 0 0
8271 67.975 65.37 0.26 24.66 3.95 102.64 0 0 0
8272 67.975 79.57 0.27 16.36 3.25 103.5 0 0 0
8273 67.975 91.53 0 10.32 2.31 102 0 0 0
8274 67.975 102.27 0 6.64 1.63 100.5 0 0 0
8275 67.975 110.36 0 4.56 1.1 99 0 0 0
8276 67.975 110.78 0 2.59 0.17 95.35 0 0 0
8277 67.975 104.32 0 1.41 0.56 74.6 0 0 0
8278 67.975 92.44 0 0.5 0.15 43.95 0 0 0
8279 67.975 77.4 0 0.11 0.24 15.19 0 0 0
8280 67.975 58.24 0 0 0 -1 -1 -1 -1
8281 67.975 40.78 0 0 0 -1 -1 -1 -1
8282 67.975 27.65 0.24 0 0 -1 -1 -1 -1
8283 67.975 16.49 2.07 0 0 -1 -1 -1 -1
8284 67.975 10.22 3.39 0 0 -1 -1 -1 -1

$$

$full_facts_mut

4113	10.55	-1	-1	-1	-1
4114	10.55	-1	-1	-1	-1
4115	10.55	-1	-1	-1	-1
4116	10.55	-1	-1	-1	-1
4117	10.55	-1	-1	-1	-1
4118	10.55	-1	-1	-1	-1
4119	10.55	-1	-1	-1	-1
4120	10.55	-1	-1	-1	-1
4121	10.55	-1	-1	-1	-1
4122	10.55	-1	-1	-1	-1
4123	10.55	-1	-1	-1	-1
4124	10.55	-1	-1	-1	-1
4125	10.55	-1	-1	-1	-1
4126	10.55	-1	-1	-1	-1
4127	10.55	-1	-1	-1	-1
4128	10.55	-1	-1	-1	-1
4129	10.55	-1	-1	-1	-1
4130	10.55	-1	-1	-1	-1
4131	10.55	-1	-1	-1	-1
4132	10.55	-1	-1	-1	-1
4133	10.55	-1	-1	-1	-1
4134	10.55	-1	-1	-1	-1
4135	10.55	-1	-1	-1	-1
4136	10.55	-1	-1	-1	-1
4137	10.55	-1	-1	-1	-1
4138	10.55	-1	-1	-1	-1
4139	10.55	-1	-1	-1	-1
4140	10.55	-1	-1	-1	-1
4141	10.55	-1	-1	-1	-1
4142	10.55	-1	-1	-1	-1

8227	24.225	111.14	-1	18.16	5.68
8228	24.225	103.08	-1	15.75	8.44
8229	24.225	103.73	-1	13.02	7.15
8230	24.225	99.75	-1	10.44	8.28
8231	24.225	96.35	-1	7.47	8.02
8232	24.225	82.05	-1	6	8.31
8233	24.225	70.82	-1	4.51	6.73
8234	24.225	68.66	-1	3.62	8.1
8235	24.225	51.27	-1	2.54	9.19
8236	24.225	40.19	-1	2.62	8.4
8237	24.225	32.73	-1	2.26	8.3
8238	24.225	23	-1	1.76	6.4
8239	24.225	16.44	-1	1.91	7.24
8240	24.225	12.34	-1	1.81	6.69
8241	24.225	9.11	-1	1.52	7.25
8242	24.225	8.62	-1	1.58	7.48
8243	24.225	5.21	-1	1.59	7.48
8244	24.225	5.25	-1	1.61	10.49
8245	24.225	4.08	-1	1.53	9.03
8246	24.225	3.32	-1	1.57	12.97
8247	24.225	2.01	-1	2.03	16.62
8248	24.225	2.66	-1	2.68	17.68
8249	24.225	2.76	-1	2.88	20.22
8250	24.225	1.87	-1	3.31	24.13
8251	24.225	2.19	-1	4.03	22.34
8252	24.225	1.91	-1	4.53	24.19
8253	24.225	1.83	-1	5.24	23.87
8254	24.225	1.69	-1	6.05	26.5
8255	24.225	1.98	-1	6.86	23.02
8256	24.225	1.74	-1	7.57	22.62
8257	24.225	1.64	-1	9.17	17.84
8258	24.225	2.1	-1	9.53	18.73
8259	24.225	2.31	-1	10.43	17.69
8260	24.225	2.7	-1	11.4	14.79
8261	24.225	3.05	-1	12.19	14.77
8262	24.225	3.74	-1	12.63	12.63
8263	24.225	3.57	-1	13.46	11.68
8264	24.225	3.61	-1	14.29	9.33
8265	24.225	5.36	-1	14.64	8.59
8266	24.225	4.7	-1	14.46	5.99
8267	24.225	5.84	-1	14.99	8.76
8268	24.225	6.03	-1	14.74	5.71
8269	24.225	7.4	-1	14.65	0
8270	24.225	8.47	-1	13.89	0
8271	24.225	7.95	-1	13.57	0
8272	24.225	8.45	-1	13.29	0
8273	24.225	9.48	-1	11.72	0
8274	24.225	7.53	-1	10.93	0
8275	24.225	8.94	-1	10	0
8276	24.225	8.53	-1	9.02	0
8277	24.225	9.05	-1	7.6	0
8278	24.225	8.8	-1	6.65	0
8279	24.225	8.95	-1	6.02	0
8280	24.225	8.99	-1	5.37	0
8281	24.225	8.16	-1	4.26	0
8282	24.225	7.31	-1	2.7	0
8283	24.225	8.16	-1	2.33	0
8284	24.225	7.78	-1	1.42	0

8227	30.475	128.73	-1	30.85	10.43
8228	30.475	135.8	-1	23.83	7.58
8229	30.475	129.71	-1	18.48	12.55
8230	30.475	113.14	-1	15.9	8.54
8231	30.475	109.38	-1	10.37	9.5
8232	30.475	112.59	-1	6.37	9.45
8233	30.475	90.04	-1	4.47	7.98
8234	30.475	83.19	-1	3.76	11.7
8235	30.475	70.5	-1	3.09	13.88
8236	30.475	56.87	-1	2.72	11.45
8237	30.475	47.01	-1	1.32	8.8
8238	30.475	34.65	-1	1.36	11.34
8239	30.475	22.92	-1	1.1	9.28
8240	30.475	16.91	-1	0.32	14.15
8241	30.475	16.58	-1	0.37	12.37
8242	30.475	11.09	-1	0.58	11.92
8243	30.475	14.39	-1	1.05	17.22
8244	30.475	7.14	-1	1.57	16.11
8245	30.475	9.23	-1	0.22	18.62
8246	30.475	6.99	-1	0.91	20.14
8247	30.475	6.64	-1	2.58	22.51
8248	30.475	6.87	-1	2.91	24.68
8249	30.475	6.6	-1	2.72	27.45
8250	30.475	6.78	-1	3.95	28.15
8251	30.475	7.19	-1	3.85	30.18
8252	30.475	7.55	-1	5.42	35.38
8253	30.475	4.83	-1	7.23	34.96
8254	30.475	4.44	-1	10.12	34.19
8255	30.475	3.97	-1	13.06	31.8
8256	30.475	6.13	-1	13.65	27.07
8257	30.475	5.39	-1	17.43	25.19
8258	30.475	6.23	-1	17.57	18.21
8259	30.475	5.82	-1	19.61	23.05
8260	30.475	6.74	-1	21.4	16
8261	30.475	4.4	-1	23.78	15.59
8262	30.475	4.58	-1	25.43	13.8
8263	30.475	6.28	-1	27.19	13.99
8264	30.475	5.17	-1	27.16	12.32
8265	30.475	6.48	-1	24.54	13.15
8266	30.475	6.96	-1	23.91	12.1
8267	30.475	7.93	-1	21.62	14.99
8268	30.475	8.53	-1	19.61	15.64
8269	30.475	10.21	-1	17.5	0
8270	30.475	11.13	-1	13.27	0
8271	30.475	13.51	-1	11.75	0
8272	30.475	18.12	-1	10.36	0
8273	30.475	12.86	-1	8.65	0
8274	30.475	17.85	-1	7.82	0
8275	30.475	15.62	-1	7.74	0
8276	30.475	16.58	-1	6.69	0
8277	30.475	19.63	-1	4.55	0
8278	30.475	16.94	-1	5.09	0
8279	30.475	16.94	-1	2.29	0
8280	30.475	16.34	-1	0.74	0
8281	30.475	16.02	-1	0	0
8282	30.475	12.35	-1	0	0
8283	30.475	17.21	-1	0	0
8284	30.475	12.3	-1	0	0

8227	36.725	149.34	-1	66.87	3.41
8228	36.725	149.69	-1	48.4	2.56
8229	36.725	146.77	-1	37.67	2.61
8230	36.725	154.52	-1	22.53	2.14
8231	36.725	139.07	-1	16.59	1.38
8232	36.725	128.05	-1	9.57	0.38
8233	36.725	114.41	-1	5.59	1.07
8234	36.725	100.97	-1	3.16	2.38
8235	36.725	90.86	-1	2.92	2.34
8236	36.725	70.37	-1	1.26	3.04
8237	36.725	55	-1	1.37	2.7
8238	36.725	44.86	-1	0.63	3.68
8239	36.725	29.17	-1	0	3.62
8240	36.725	20.8	-1	1.03	2.76
8241	36.725	15.53	-1	0.8	2.03
8242	36.725	13.85	-1	2.73	2.05
8243	36.725	8.19	-1	5.61	1.73
8244	36.725	6.44	-1	6.59	3.5
8245	36.725	5.17	-1	9.76	4.9
8246	36.725	2.98	-1	15.41	7.64
8247	36.725	3.18	-1	19.08	11.81
8248	36.725	2.67	-1	26.97	17.68
8249	36.725	1.46	-1	34.58	21.84
8250	36.725	1.31	-1	40.45	24.11
8251	36.725	1.64	-1	43.84	26.57
8252	36.725	0.8	-1	49.72	26.17
8253	36.725	1.42	-1	56.48	27.09
8254	36.725	0.74	-1	58.24	25.72
8255	36.725	1.11	-1	62.42	24.24
8256	36.725	0.9	-1	64.64	25.29
8257	36.725	1.19	-1	70.16	18.38
8258	36.725	0.82	-1	73.85	15.84
8259	36.725	1.38	-1	73.38	14.01
8260	36.725	0.9	-1	73.87	11.11
8261	36.725	1.61	-1	75.04	9.41
8262	36.725	1.97	-1	69.69	8.77
8263	36.725	2.96	-1	73.49	7.07
8264	36.725	3.16	-1	54.12	5.96
8265	36.725	4.21	-1	49.56	6.38
8266	36.725	7.63	-1	47.78	5.2
8267	36.725	8.86	-1	47.55	3.8
8268	36.725	9.5	-1	32.19	4.29
8269	36.725	11.76	-1	28.68	0
8270	36.725	12.8	-1	20.37	0
8271	36.725	16.23	-1	12.74	0
8272	36.725	20.05	-1	9.9	0
8273	36.725	20.21	-1	9.03	0
8274	36.725	22.44	-1	4.34	0
8275	36.725	22.56	-1	3.34	0
8276	36.725	25.83	-1	1.5	0
8277	36.725	27.19	-1	2.75	0
8278	36.725	22.47	-1	2.24	0
8279	36.725	23.11	-1	2.97	0
8280	36.725	18	-1	2.17	0
8281	36.725	18.09	-1	1.03	0
8282	36.725	14.08	-1	1.8	0
8283	36.725	16.88	-1	0	0
8284	36.725	10.13	-1	0	0

8227	42.975	148.94	-1	97.88	8.41
8228	42.975	146.52	-1	78.18	9.6
8229	42.975	148.67	-1	64.17	8.54
8230	42.975	146.35	-1	42.35	9.19
8231	42.975	143.71	-1	30.67	9.4
8232	42.975	136.11	-1	20.68	9.74
8233	42.975	129.49	-1	16.19	10.01
8234	42.975	129.59	-1	9.88	10.82
8235	42.975	107.44	-1	5.99	9.37
8236	42.975	96.52	-1	5.13	11.89
8237	42.975	79.4	-1	4.12	9.89
8238	42.975	60.07	-1	3.52	10.55
8239	42.975	47.62	-1	2.74	11.5
8240	42.975	33.58	-1	1.72	10.2
8241	42.975	22.72	-1	1.92	11.32
8242	42.975	17.45	-1	1.65	12.76
8243	42.975	11.24	-1	2.45	11.91
8244	42.975	7.87	-1	3.97	13.21
8245	42.975	5.99	-1	7.96	15.45
8246	42.975	6.06	-1	9.78	17.37
8247	42.975	5.51	-1	14.38	21.63
8248	42.975	4.95	-1	20.67	25.26
8249	42.975	4.98	-1	25.61	30.31
8250	42.975	3.27	-1	31.93	35.42
8251	42.975	3.1	-1	35.63	35.58
8252	42.975	2.58	-1	42.99	36.25
8253	42.975	2.93	-1	45.19	35.37
8254	42.975	2.08	-1	54.71	33.16
8255	42.975	2.4	-1	65.04	32.6
8256	42.975	1.84	-1	64.74	28.19
8257	42.975	2.29	-1	67.47	28.18
8258	42.975	2.31	-1	74.03	24.84
8259	42.975	2.9	-1	76.33	24.04
8260	42.975	3.58	-1	77.83	23.07
8261	42.975	4.11	-1	79.48	19.43
8262	42.975	6.05	-1	78.32	19.66
8263	42.975	7	-1	77.67	17.34
8264	42.975	10.5	-1	61.68	17.56
8265	42.975	14.09	-1	59.13	14.64
8266	42.975	17.06	-1	62.51	16.14
8267	42.975	24.58	-1	47.43	13.25
8268	42.975	26.72	-1	44.07	14.56
8269	42.975	33.41	-1	37.11	0
8270	42.975	35.25	-1	28.76	0
8271	42.975	41.24	-1	20.37	0
8272	42.975	43.33	-1	15.14	0
8273	42.975	44.01	-1	10.76	0
8274	42.975	48.61	-1	11.22	0
8275	42.975	44.36	-1	6.74	0
8276	42.975	45.23	-1	4.13	0
8277	42.975	41.7	-1	3.95	0
8278	42.975	35.44	-1	2.65	0
8279	42.975	30.74	-1	2.36	0
8280	42.975	27.06	-1	2.31	0
8281	42.975	21.98	-1	1.02	0
8282	42.975	18.3	-1	1.57	0
8283	42.975	15.07	-1	1.16	0
8284	42.975	14.97	-1	1.92	0

8227	49.225	146.33	-1	115.86	5.6
8228	49.225	148.68	-1	97.37	4.95
8229	49.225	139.12	-1	81.1	5.08
8230	49.225	149.68	-1	59.95	5.38
8231	49.225	135.57	-1	45.8	5.88
8232	49.225	132.15	-1	31.1	8.34
8233	49.225	124.51	-1	21.61	8.01
8234	49.225	118.37	-1	14.28	6.94
8235	49.225	105.35	-1	8.17	7.83
8236	49.225	93.51	-1	5.06	6.54
8237	49.225	83.39	-1	2.91	7.24
8238	49.225	70.78	-1	1.47	7.81
8239	49.225	58.35	-1	1.56	7.63
8240	49.225	44.76	-1	0.4	8.26
8241	49.225	31.69	-1	1.63	7.4
8242	49.225	25.04	-1	2.53	7.49
8243	49.225	17.38	-1	5.15	9.41
8244	49.225	12.61	-1	9.48	9.56
8245	49.225	8.22	-1	15.24	10.45
8246	49.225	6.94	-1	22.93	12.2
8247	49.225	5.11	-1	31.46	16.56
8248	49.225	4.37	-1	40.32	19.79
8249	49.225	3.87	-1	44.8	24.92
8250	49.225	3.85	-1	53.17	26.16
8251	49.225	4.12	-1	58.69	30.6
8252	49.225	3.73	-1	59.93	30.62
8253	49.225	3.15	-1	65.77	30.87
8254	49.225	1.69	-1	69.3	29.77
8255	49.225	3.01	-1	69.9	30.11
8256	49.225	3.87	-1	70.85	29.08
8257	49.225	2.54	-1	69.29	26.38
8258	49.225	4.71	-1	68.31	21.1
8259	49.225	4.85	-1	68.52	19.96
8260	49.225	5.23	-1	63.96	18.62
8261	49.225	6.75	-1	62.63	15.81
8262	49.225	9.71	-1	54.44	13.3
8263	49.225	12.01	-1	49.45	10.76
8264	49.225	15.52	-1	42.97	11.38
8265	49.225	18.84	-1	36.58	9.5
8266	49.225	25.25	-1	30.36	8.65
8267	49.225	30.72	-1	23.16	8.91
8268	49.225	40.03	-1	17.45	8.39
8269	49.225	42.65	-1	12.09	0
8270	49.225	49.62	-1	9.42	0
8271	49.225	54.39	-1	5.5	0
8272	49.225	56.97	-1	4.36	0
8273	49.225	61.89	-1	3.12	0
8274	49.225	60.35	-1	3.38	0
8275	49.225	58.36	-1	0.98	0
8276	49.225	53.92	-1	1.2	0
8277	49.225	51.61	-1	1.05	0
8278	49.225	48.45	-1	0.49	0
8279	49.225	39.46	-1	0.34	0
8280	49.225	34.92	-1	0.14	0
8281	49.225	33	-1	0	0
8282	49.225	25.02	-1	0.4	0
8283	49.225	18.52	-1	0	0
8284	49.225	19.67	-1	0	0

8227	55.475	104.67	-1	121.29	8.77
8228	55.475	107.11	-1	96.08	9.89
8229	55.475	104.72	-1	74.7	11.87
8230	55.475	108.19	-1	53.3	8.47
8231	55.475	104.44	-1	40.78	7.35
8232	55.475	99.4	-1	28.7	7.8
8233	55.475	98.04	-1	19.52	7.86
8234	55.475	91.61	-1	15.19	8.13
8235	55.475	68.1	-1	9.47	9.44
8236	55.475	67.68	-1	6.71	6.87
8237	55.475	55	-1	3.4	11.25
8238	55.475	37.29	-1	1.37	12.15
8239	55.475	29.89	-1	0.82	11.91
8240	55.475	21.61	-1	1.24	10.44
8241	55.475	13.24	-1	1.72	12.65
8242	55.475	9.38	-1	4.71	12.21
8243	55.475	4.5	-1	9.5	14.09
8244	55.475	3.13	-1	15.01	18.3
8245	55.475	3.69	-1	23.5	22.33
8246	55.475	2.95	-1	33.86	21.48
8247	55.475	2.51	-1	40.83	24.86
8248	55.475	2.72	-1	49	25.45
8249	55.475	1.46	-1	56.3	26.71
8250	55.475	1.46	-1	59.8	28.03
8251	55.475	1.57	-1	60.8	27.53
8252	55.475	1.56	-1	64.19	26.76
8253	55.475	1.61	-1	64.02	25.28
8254	55.475	2.6	-1	63.7	23.34
8255	55.475	1.26	-1	63.73	20.13
8256	55.475	0.88	-1	62.12	18.22
8257	55.475	1.91	-1	61.19	17.56
8258	55.475	2.06	-1	60.97	14.57
8259	55.475	2.34	-1	55.25	13.36
8260	55.475	2.7	-1	53.25	13.89
8261	55.475	4.28	-1	42.72	15.08
8262	55.475	4.44	-1	38.07	11.62
8263	55.475	9.2	-1	33.67	11.84
8264	55.475	11.35	-1	26.14	12.17
8265	55.475	16.87	-1	21.48	11.46
8266	55.475	26.22	-1	18.33	11.74
8267	55.475	33.07	-1	14.18	12.26
8268	55.475	38.46	-1	10.86	10.89
8269	55.475	49.43	-1	7.87	0
8270	55.475	51.05	-1	5.74	0
8271	55.475	60.9	-1	3.48	0
8272	55.475	68.35	-1	2.9	0
8273	55.475	63.87	-1	1.65	0
8274	55.475	59.86	-1	0.9	0
8275	55.475	64.42	-1	0.22	0
8276	55.475	46.6	-1	0.79	0
8277	55.475	49.13	-1	1.29	0
8278	55.475	38.71	-1	0.55	0
8279	55.475	27.45	-1	0.8	0
8280	55.475	25.38	-1	1.45	0
8281	55.475	17.97	-1	0.39	0
8282	55.475	13.29	-1	0.33	0
8283	55.475	13.03	-1	0.42	0
8284	55.475	9.86	-1	0.97	0

8227	61.725	87.17	-1	116.69	5.7
8228	61.725	83.47	-1	98.5	4.79
8229	61.725	79.44	-1	69.46	6
8230	61.725	81.87	-1	52.45	5.24
8231	61.725	83.22	-1	38.1	7.33
8232	61.725	81.52	-1	26.47	7.19
8233	61.725	78.65	-1	19.61	5.98
8234	61.725	66.3	-1	14.19	7.03
8235	61.725	59.31	-1	9.24	6.51
8236	61.725	52.09	-1	8.03	7.55
8237	61.725	42.93	-1	5.98	7.77
8238	61.725	33.86	-1	1.81	7.93
8239	61.725	29.05	-1	4	10.26
8240	61.725	22.04	-1	4.44	9.83
8241	61.725	13.47	-1	5.39	7.84
8242	61.725	12.36	-1	8.01	8.05
8243	61.725	7.41	-1	11.03	11.2
8244	61.725	7.27	-1	18.72	13.77
8245	61.725	3.99	-1	24.02	15.03
8246	61.725	3.98	-1	30.92	19.22
8247	61.725	3.11	-1	37.54	19.4
8248	61.725	2.89	-1	43.36	19.34
8249	61.725	2.61	-1	50.74	20.09
8250	61.725	2.16	-1	52.34	21.85
8251	61.725	1.99	-1	55.84	24.4
8252	61.725	2.38	-1	54.29	22.09
8253	61.725	2.68	-1	56.34	23.6
8254	61.725	2.41	-1	56.32	21.32
8255	61.725	2.49	-1	54.25	20.86
8256	61.725	2.33	-1	52.52	18.72
8257	61.725	2.1	-1	44.99	17.7
8258	61.725	3.94	-1	40.2	16.24
8259	61.725	3.84	-1	35.25	14.27
8260	61.725	5.22	-1	29.6	12.39
8261	61.725	8.61	-1	26.02	11.04
8262	61.725	10.38	-1	20.32	10.43
8263	61.725	15.3	-1	18.36	10.75
8264	61.725	20.63	-1	15.78	9.42
8265	61.725	28.99	-1	11.93	7.46
8266	61.725	30.96	-1	9.27	6.82
8267	61.725	41.49	-1	6.3	6.58
8268	61.725	50.75	-1	4.13	5.29
8269	61.725	59.2	-1	3.8	0
8270	61.725	62.44	-1	2.62	0
8271	61.725	67.03	-1	1.13	0
8272	61.725	66.57	-1	0.46	0
8273	61.725	53.99	-1	0.1	0
8274	61.725	58.2	-1	0.71	0
8275	61.725	45.47	-1	0.39	0
8276	61.725	38.75	-1	0	0
8277	61.725	30.19	-1	0.17	0
8278	61.725	23.44	-1	1.01	0
8279	61.725	17.71	-1	2.24	0
8280	61.725	13.02	-1	2.38	0
8281	61.725	9.57	-1	0.95	0
8282	61.725	8.78	-1	1.38	0
8283	61.725	4.5	-1	1.96	0
8284	61.725	4.79	-1	3.08	0

8227	67.975	55.53	-1	83.14	2.24
8228	67.975	56.22	-1	67.13	3.2
8229	67.975	58.74	-1	54.4	1.88
8230	67.975	53.11	-1	36.04	1.58
8231	67.975	62.04	-1	24.56	1.27
8232	67.975	59.65	-1	19.93	3.9
8233	67.975	61.52	-1	14.42	1.72
8234	67.975	53.96	-1	10	1.92
8235	67.975	49.39	-1	6.37	3.11
8236	67.975	42.8	-1	5.78	2.64
8237	67.975	46.69	-1	4.09	4.13
8238	67.975	32.74	-1	2.77	4.57
8239	67.975	34.22	-1	2.54	4.05
8240	67.975	23.66	-1	2.9	4.17
8241	67.975	17.55	-1	2.33	5.15
8242	67.975	10.86	-1	3.2	4.27
8243	67.975	8.39	-1	4.15	5.31
8244	67.975	4.78	-1	7.35	6.86
8245	67.975	3.94	-1	11.23	5.69
8246	67.975	3.91	-1	14.64	7.73
8247	67.975	3.17	-1	17.13	9.37
8248	67.975	3.23	-1	23.4	9.45
8249	67.975	2.54	-1	26.21	12.76
8250	67.975	2.18	-1	28.72	12.28
8251	67.975	3.79	-1	29.09	11.6
8252	67.975	2.86	-1	33.07	11.13
8253	67.975	3.53	-1	31.22	11.61
8254	67.975	3.44	-1	26.14	8.89
8255	67.975	4.77	-1	26.52	9.8
8256	67.975	3.12	-1	24.95	6.29
8257	67.975	4.22	-1	18.7	6.99
8258	67.975	5.54	-1	18.68	6.38
8259	67.975	9.31	-1	16.66	5.59
8260	67.975	11.04	-1	13.55	5.61
8261	67.975	9.77	-1	11.56	6.41
8262	67.975	15.67	-1	9.46	4.59
8263	67.975	19.02	-1	7.88	3.15
8264	67.975	29.17	-1	6.44	5.27
8265	67.975	25.52	-1	4.93	5.49
8266	67.975	31.08	-1	4.85	4.23
8267	67.975	48.44	-1	1.6	2.98
8268	67.975	45.47	-1	0.6	4.39
8269	67.975	41.98	-1	2.02	0
8270	67.975	54.07	-1	0	0
8271	67.975	48.81	-1	1.38	0
8272	67.975	55.99	-1	0.11	0
8273	67.975	59.85	-1	0	0
8274	67.975	56.46	-1	0.39	0
8275	67.975	44.42	-1	0	0
8276	67.975	40.22	-1	0	0
8277	67.975	40.21	-1	0	0
8278	67.975	23.19	-1	0	0
8279	67.975	19.74	-1	0	0
8280	67.975	9.07	-1	0.45	0
8281	67.975	8.46	-1	0	0
8282	67.975	7.58	-1	0.21	0
8283	67.975	5.23	-1	0	0
8284	67.975	5.05	-1	0	0

$$


$full_bcd_wt

4113	0
4114	0
4115	0
4116	0
4117	0
4118	0
4119	0
4120	20.062
4121	17.92
4122	16.007
4123	14.298
4124	12.771
4125	11.408
4126	10.19
4127	9.102
4128	8.13
4129	7.262
4130	6.487
4131	5.794
4132	5.176
4133	4.623
4134	4.13
4135	3.689
4136	3.295
4137	2.943
4138	2.629
4139	2.348
4140	2.098
4141	1.874
4142	1.674

8227	0
8228	0
8229	0
8230	0
8231	0
8232	0
8233	0
8234	0
8235	0
8236	0
8237	0
8238	0
8239	0
8240	19.215
8241	18.086
8242	17.023
8243	16.022
8244	15.081
8245	14.194
8246	13.36
8247	12.575
8248	11.836
8249	11.14
8250	10.486
8251	9.8693
8252	9.2893
8253	8.7433
8254	8.2294
8255	7.7458
8256	7.2905
8257	6.8621
8258	6.4588
8259	6.0792
8260	5.7219
8261	5.3856
8262	5.0691
8263	4.7712
8264	4.4907
8265	4.2268
8266	3.9784
8267	3.7446
8268	3.5245
8269	3.3174
8270	3.1224
8271	2.9389
8272	2.7661
8273	2.6036
8274	2.4506
8275	2.3065
8276	2.171
8277	2.0434
8278	1.9233
8279	1.8103
8280	1.7039
8281	1.6037
8282	1.5095
8283	1.4207
8284	1.3372

$$


$full_facts_externals

lin   time   Bcd   Cad   Tll   Hb   Kr   Gt   Kni

1028   -17.150   45.740   48.790   12.270   22.970   -1.000   -1.000   -1.000
1029   -17.150   24.760   74.950   12.320   17.490   -1.000   -1.000   -1.000
1030   -17.150   14.940   96.290   11.900   10.410   -1.000   -1.000   -1.000
1031   -17.150   8.450   105.550   11.240   3.850   -1.000   -1.000   -1.000
1032   -17.150   4.960   98.830   9.200   1.660   -1.000   -1.000   -1.000
1033   -17.150   2.140   80.270   6.760   0.000   -1.000   -1.000   -1.000
1034   -17.150   1.160   70.180   5.990   0.000   -1.000   -1.000   -1.000
1035   -17.150   1.310   46.740   4.370   0.000   -1.000   -1.000   -1.000

2057   -6.200   45.020   53.490   3.350   28.350   6.180   5.380   0.000
2058   -6.200   34.640   72.560   2.830   23.000   6.880   4.550   0.000
2059   -6.200   24.960   86.600   2.240   18.150   6.760   4.090   0.000
2060   -6.200   18.470   99.450   2.070   11.750   6.570   2.900   0.000
2061   -6.200   13.290   113.760   2.960   8.260   5.560   2.660   0.900
2062   -6.200   9.790   124.720   2.440   5.110   4.550   1.550   1.660
2063   -6.200   6.950   124.540   1.930   2.740   3.960   2.210   1.680
2064   -6.200   4.630   129.930   0.750   1.330   3.430   2.500   0.720
2065   -6.200   3.060   126.010   1.600   0.900   2.420   0.500   2.090
2066   -6.200   1.630   122.430   0.000   0.440   1.670   1.480   0.590
2067   -6.200   1.160   116.320   0.000   0.000   1.500   1.140   1.230
2068   -6.200   0.830   113.150   0.370   0.000   0.060   3.320   1.120
2069   -6.200   0.000   102.740   0.000   0.000   0.000   4.150   0.900
2070   -6.200   0.000   98.900   0.540   0.090   0.320   5.330   2.290
2071   -6.200   0.580   84.620   1.820   0.450   0.380   8.800   0.840

4113   0.00   53.288   28.909   3.767   49.822   0.000   0.000   0.000
4114   0.00   43.820   36.335   3.741   45.991   0.000   0.000   0.000
4115   0.00   40.539   40.020   4.132   43.974   0.000   0.000   0.000
4116   0.00   34.109   51.887   3.289   38.058   0.000   0.000   0.000
4117   0.00   31.793   55.963   3.586   35.644   0.000   0.000   0.000
4118   0.00   25.907   65.176   3.172   29.269   0.000   0.000   0.000
4119   0.00   23.850   68.331   3.373   26.156   0.000   0.000   0.000
4120   0.00   19.519   78.055   3.449   18.742   0.000   0.000   0.000
4121   0.00   17.923   82.207   2.787   15.996   0.000   0.000   0.000
4122   0.00   14.418   90.889   2.921   11.536   0.000   0.000   0.000
4123   0.00   13.156   93.318   3.375   10.148   0.000   0.000   0.000
4124   0.00   10.817   100.519   2.880   6.916   0.000   0.000   0.000
4125   0.00   9.808   102.393   2.785   5.898   0.000   0.000   0.000
4126   0.00   7.922   104.755   2.394   3.691   0.000   0.000   0.000
4127   0.00   7.120   105.481   1.088   3.143   0.000   0.000   0.000
4128   0.00   5.642   107.795   0.922   1.856   0.000   0.000   0.000
4129   0.00   4.935   109.877   0.846   1.552   0.000   0.000   0.000
4130   0.00   3.659   106.657   0.921   1.022   0.000   0.000   0.000
4131   0.00   3.173   107.332   1.054   0.863   0.000   0.000   0.000
4132   0.00   2.182   105.317   0.480   0.410   0.000   0.000   0.000
4133   0.00   1.747   103.493   0.082   0.277   0.000   0.000   0.000
4134   0.00   1.269   101.391   0.902   0.000   0.000   0.000   0.000
4135   0.00   1.023   102.224   1.249   0.000   0.000   0.000   0.000
4136   0.00   0.541   99.755   2.415   0.000   0.000   0.000   0.000
4137   0.00   0.358   101.162   3.664   0.000   0.000   0.000   0.000
4138   0.00   0.000   95.719   5.010   0.000   0.000   0.000   0.000
4139   0.00   0.000   95.965   7.755   0.000   0.000   0.000   0.000
4140   0.00   0.170   94.484   10.416   0.057   0.000   0.000   0.000
4141   0.00   0.328   93.878   13.009   0.057   0.000   0.000   0.000
4142   0.00   0.455   84.961   13.585   0.283   0.000   0.000   0.000

4113   10.55   48.640   22.850   3.460   80.130   4.750   20.290   1.420
4114   10.55   42.990   26.150   3.960   76.010   6.460   17.920   1.780
4115   10.55   37.790   31.990   4.580   70.560   8.310   14.700   0.000
4116   10.55   33.700   39.590   3.550   63.680   10.490   10.940   1.310
4117   10.55   30.030   46.050   4.020   57.160   13.130   7.100   2.150
4118   10.55   26.390   52.400   3.710   48.190   16.100   4.800   1.710
4119   10.55   23.130   57.400   4.030   39.780   19.230   3.940   1.790
4120   10.55   20.080   65.260   4.250   30.640   22.330   3.250   2.550
4121   10.55   17.550   71.840   3.200   23.220   23.800   2.840   5.130
4122   10.55   15.040   77.190   2.890   17.110   25.090   3.090   6.910
4123   10.55   13.040   81.040   3.610   13.360   25.800   3.290   10.910
4124   10.55   11.390   86.010   3.130   9.990   24.110   3.540   15.620
4125   10.55   9.790   88.980   2.980   7.240   21.560   3.100   24.340
4126   10.55   8.470   92.830   2.660   5.310   18.890   3.460   33.330
4127   10.55   7.200   93.980   0.590   3.830   14.840   4.080   42.460
4128   10.55   6.220   94.480   1.020   2.750   12.050   4.410   49.620
4129   10.55   5.100   97.780   0.900   1.930   10.120   5.880   47.930
4130   10.55   4.000   94.980   0.520   1.230   7.080   7.930   45.960
4131   10.55   3.230   96.050   0.730   0.800   5.020   7.840   46.140
4132   10.55   2.500   94.960   0.760   0.360   3.620   10.000   36.440
4133   10.55   1.810   92.070   0.130   0.000   2.000   9.940   29.840
4134   10.55   1.330   92.330   1.430   0.000   1.190   12.670   21.270
4135   10.55   0.940   93.650   1.980   0.000   0.620   15.490   17.160
4136   10.55   0.370   91.600   3.610   0.000   0.000   17.050   10.750
4137   10.55   0.080   93.830   5.590   0.000   0.000   16.910   9.760
4138   10.55   0.000   91.320   7.940   0.000   0.000   17.440   9.280
4139   10.55   0.000   91.710   12.290   0.000   0.000   18.940   11.020
4140   10.55   0.270   91.620   16.190   0.000   0.040   18.210   12.300
4141   10.55   0.520   90.660   20.300   0.000   0.740   18.140   10.940
4142   10.55   0.380   84.920   20.460   0.000   0.860   17.480   9.660

8227   24.225   52.620   31.230   1.180   136.580   9.560   55.800   0.250
8228   24.225   48.610   33.880   1.370   132.550   12.150   48.680   0.000
8229   24.225   45.440   36.170   0.600   127.890   14.320   41.440   0.000
8230   24.225   42.940   39.440   0.940   123.350   17.720   34.720   0.000
8231   24.225   40.160   44.950   1.820   119.450   21.850   26.650   0.080
8232   24.225   38.070   47.640   0.970   112.310   27.240   21.230   0.230
8233   24.225   35.630   47.270   1.190   104.020   32.770   15.060   0.000
8234   24.225   33.210   54.980   1.060   95.340   39.420   11.020   0.190
8235   24.225   31.130   58.920   1.330   86.090   46.490   7.750   0.000
8236   24.225   29.130   64.780   1.790   75.350   54.600   5.060   0.270
8237   24.225   26.950   66.310   1.180   64.480   62.140   3.610   0.140
8238   24.225   25.300   70.470   0.710   54.310   67.990   2.900   0.100
8239   24.225   23.610   73.770   1.400   45.230   75.300   2.100   0.270
8240   24.225   21.920   77.090   0.970   36.120   81.640   1.340   0.820
8241   24.225   20.380   82.330   0.730   28.340   86.810   0.940   2.040
8242   24.225   18.960   85.470   0.830   22.030   92.030   0.800   2.010
8243   24.225   17.560   88.180   1.120   17.230   94.530   0.370   3.190
8244   24.225   16.050   91.450   1.510   13.250   95.090   0.550   4.740
8245   24.225   14.800   95.770   1.120   10.380   96.970   0.460   8.470
8246   24.225   13.500   98.130   1.370   7.890   96.210   0.300   9.740
8247   24.225   12.360   99.700   1.880   5.940   95.290   0.020   14.470
8248   24.225   11.430   104.400   1.300   4.660   91.390   0.000   20.240
8249   24.225   10.510   105.380   1.100   3.450   87.120   0.000   27.410
8250   24.225   9.950   108.050   0.780   2.600   80.540   0.000   35.420
8251   24.225   9.050   110.670   1.310   1.780   72.980   0.000   43.340
8252   24.225   8.110   112.240   0.380   1.180   64.820   0.010   52.900
8253   24.225   7.470   113.770   0.750   0.720   55.850   0.330   60.340
8254   24.225   6.960   116.690   0.920   0.280   47.650   0.920   65.790
8255   24.225   6.060   115.990   0.950   0.000   38.910   1.700   72.820
8256   24.225   5.390   116.710   0.440   0.000   31.460   3.410   74.570
8257   24.225   5.030   117.350   0.810   0.000   24.400   4.970   75.590
8258   24.225   4.540   118.080   0.550   0.000   18.830   7.100   75.470
8259   24.225   3.960   118.440   0.740   0.000   15.050   10.140   74.890
8260   24.225   3.570   120.330   0.590   0.000   11.560   14.780   72.440
8261   24.225   3.170   119.000   1.070   0.000   9.110   17.990   67.300
8262   24.225   2.700   119.430   1.370   0.000   7.140   22.630   61.570
8263   24.225   2.480   120.050   0.960   0.000   5.670   29.460   55.640
8264   24.225   2.030   118.600   1.070   0.000   4.280   33.530   49.270
8265   24.225   1.890   119.910   1.670   0.000   3.300   39.870   41.110
8266   24.225   1.550   120.340   1.720   0.000   2.270   45.640   33.590
8267   24.225   1.310   119.150   3.680   0.000   1.910   51.320   27.660
8268   24.225   0.950   115.780   4.480   0.000   1.490   55.860   22.220
8269   24.225   0.830   117.800   5.990   0.000   1.120   59.330   16.940
8270   24.225   0.520   115.540   7.440   0.000   0.620   61.940   12.620
8271   24.225   0.330   114.560   9.420   0.000   0.600   63.250   10.380
8272   24.225   0.340   115.950   12.050   0.000   0.350   65.710   7.100
8273   24.225   0.000   113.890   14.370   0.170   0.000   64.040   5.810
8274   24.225   0.000   111.970   19.410   0.410   0.000   63.030   4.270
8275   24.225   0.000   112.900   24.700   0.910   0.000   60.550   3.050
8276   24.225   0.000   110.720   30.570   1.460   0.000   56.280   2.550
8277   24.225   0.030   113.470   36.180   1.840   0.000   52.030   1.760
8278   24.225   0.090   110.240   42.380   2.350   0.000   48.480   1.350
8279   24.225   0.330   110.410   48.220   2.830   0.120   44.330   1.440
8280   24.225   0.510   108.200   56.150   3.460   0.090   40.900   1.220
8281   24.225   0.700   107.820   61.710   4.040   0.360   37.600   0.760
8282   24.225   0.720   105.200   67.880   4.500   0.500   33.770   0.760
8283   24.225   1.010   103.470   73.750   4.960   0.440   29.990   0.700
8284   24.225   1.010   99.090   73.730   5.210   0.520   26.610   0.010

8227   30.475   43.980   28.360   0.310   164.380   9.220   92.640   0.070
8228   30.475   41.300   30.510   0.900   161.420   12.170   79.730   0.000
8229   30.475   38.990   32.800   1.290   158.630   15.630   64.960   0.080
8230   30.475   36.120   35.950   0.410   152.640   19.990   50.620   0.000
8231   30.475   34.190   39.170   1.200   148.280   26.480   37.380   0.160
8232   30.475   31.870   43.380   0.000   140.580   33.590   26.110   0.800
8233   30.475   29.800   49.350   0.100   130.040   42.400   18.100   0.490
8234   30.475   27.400   50.670   0.880   118.000   53.500   12.610   0.970
8235   30.475   25.530   55.010   0.150   102.680   65.470   8.690   1.100
8236   30.475   24.180   58.610   0.620   86.950   79.860   6.480   1.280
8237   30.475   22.330   63.210   0.980   72.370   92.790   4.610   1.500
8238   30.475   20.490   67.140   0.680   56.200   104.830   3.580   1.150
8239   30.475   18.830   72.470   0.360   43.280   115.040   2.840   1.740
8240   30.475   17.510   74.310   0.680   32.230   124.760   1.970   2.310
8241   30.475   16.080   78.870   0.650   24.170   131.110   1.650   2.450
8242   30.475   14.710   82.440   0.230   18.250   133.270   1.240   3.400
8243   30.475   13.680   85.790   1.430   13.750   136.410   0.770   4.530
8244   30.475   12.300   87.190   0.750   10.360   137.160   0.600   5.910
8245   30.475   11.380   92.650   1.360   7.640   135.860   0.750   9.420
8246   30.475   10.590   94.680   0.870   5.780   131.790   0.760   13.700
8247   30.475   9.560   97.880   1.510   4.500   125.500   0.370   20.550
8248   30.475   8.680   101.170   1.610   3.400   117.620   0.000   29.560
8249   30.475   8.120   102.530   0.770   2.360   108.620   0.090   41.410
8250   30.475   7.370   104.280   0.620   1.660   98.440   0.000   54.070
8251   30.475   6.620   108.130   0.470   1.150   83.940   0.000   68.820
8252   30.475   6.080   108.990   0.570   0.770   70.440   0.000   83.700
8253   30.475   5.380   113.220   1.220   0.430   57.430   0.000   97.760
8254   30.475   4.710   113.300   0.540   0.020   45.440   0.230   109.540
8255   30.475   4.600   115.040   1.130   0.000   35.240   1.190   116.130
8256   30.475   3.850   114.480   0.410   0.000   26.740   2.590   120.800
8257   30.475   3.500   118.200   0.230   0.000   20.390   5.320   121.370
8258   30.475   2.930   117.500   0.000   0.000   14.690   9.140   119.050
8259   30.475   2.530   119.300   0.310   0.000   10.900   14.190   114.270
8260   30.475   2.400   121.480   0.170   0.000   7.850   21.160   106.430
8261   30.475   2.070   122.080   0.000   0.000   5.780   30.690   95.840
8262   30.475   1.770   122.580   0.120   0.000   4.090   39.670   82.020
8263   30.475   1.410   122.110   0.000   0.000   2.710   48.480   70.770
8264   30.475   1.150   124.420   0.230   0.000   2.020   57.460   58.570
8265   30.475   1.010   124.000   0.420   0.000   1.440   65.280   46.430
8266   30.475   0.710   125.540   0.890   0.000   0.710   71.630   35.760
8267   30.475   0.670   122.990   0.730   0.000   0.450   76.750   29.180
8268   30.475   0.300   123.750   1.820   0.000   0.220   79.080   23.030
8269   30.475   0.240   124.850   2.340   0.000   0.160   80.410   17.190
8270   30.475   0.260   124.410   5.010   0.000   0.000   78.170   14.270
8271   30.475   0.000   126.300   8.030   0.590   0.000   74.450   10.500
8272   30.475   0.020   126.170   11.960   1.450   0.000   69.570   8.810
8273   30.475   0.000   126.440   18.040   2.320   0.000   63.310   7.220
8274   30.475   0.000   126.500   26.430   3.890   0.000   56.670   6.120
8275   30.475   0.080   125.460   35.510   5.220   0.000   49.520   5.200
8276   30.475   0.120   126.920   51.230   6.590   0.030   44.100   4.170
8277   30.475   0.370   123.320   65.270   7.720   0.050   38.340   3.320
8278   30.475   0.280   124.990   76.760   8.630   0.090   33.270   3.020
8279   30.475   0.590   124.700   90.140   9.400   0.000   28.130   2.760
8280   30.475   0.740   125.190   99.750   9.450   0.000   24.310   1.970
8281   30.475   0.770   124.170   102.420   10.180   0.070   19.900   1.750
8282   30.475   0.790   119.060   107.010   10.020   0.070   16.650   1.440
8283   30.475   0.770   116.030   110.830   9.530   0.220   13.800   0.900
8284   30.475   0.760   113.220   116.830   9.820   0.340   11.140   0.730

8227   36.725   41.660   21.550   0.970   193.790   5.180   137.350   0.000
8228   36.725   39.070   25.300   1.430   190.730   6.960   119.990   0.000
8229   36.725   37.650   28.060   0.840   188.050   9.000   98.370   0.000
8230   36.725   35.800   33.520   0.000   184.310   11.540   75.020   0.000
8231   36.725   33.320   35.900   0.030   179.980   15.680   53.780   0.000
8232   36.725   31.790   38.570   0.000   173.380   22.040   35.840   0.000
8233   36.725   29.290   41.400   0.100   166.030   31.750   23.550   0.000
8234   36.725   27.820   48.590   0.000   154.490   43.540   15.690   0.000
8235   36.725   25.920   47.870   0.000   139.200   59.590   10.280   0.000
8236   36.725   24.740   52.420   0.480   120.090   78.350   6.330   0.000
8237   36.725   23.450   55.790   0.020   96.920   100.320   4.470   0.000
8238   36.725   21.480   60.380   0.000   75.630   118.810   3.100   0.000
8239   36.725   19.760   64.660   0.190   56.390   134.890   2.000   0.000
8240   36.725   19.020   66.530   0.240   40.120   148.220   1.650   0.000
8241   36.725   17.070   68.420   0.950   29.130   155.990   1.190   0.410
8242   36.725   16.600   71.900   0.630   21.180   159.660   0.760   1.570
8243   36.725   15.180   76.660   0.990   15.480   162.070   0.560   3.160
8244   36.725   14.170   78.880   0.150   10.830   162.450   0.330   5.270
8245   36.725   13.200   81.340   1.090   7.620   161.490   0.220   8.680
8246   36.725   11.850   84.170   1.310   5.730   157.900   0.070   14.800
8247   36.725   11.230   87.000   0.650   3.830   152.670   0.000   24.280
8248   36.725   10.070   90.240   1.290   2.790   144.470   0.000   37.820
8249   36.725   9.130   90.940   0.820   1.990   132.680   0.000   53.630
8250   36.725   7.850   93.030   0.000   1.220   116.720   0.000   74.130
8251   36.725   7.220   94.850   0.000   0.700   97.610   0.000   95.890
8252   36.725   6.660   95.840   0.000   0.240   78.430   0.000   117.020
8253   36.725   5.570   98.250   0.000   0.110   58.990   0.000   136.130
8254   36.725   5.130   98.050   0.130   0.000   43.050   0.000   149.680
8255   36.725   4.710   98.050   0.000   0.000   30.490   1.330   157.060
8256   36.725   3.750   97.930   0.310   0.000   21.050   4.300   159.200
8257   36.725   3.310   100.710   0.000   0.000   14.980   10.480   156.380
8258   36.725   2.920   99.610   0.000   0.000   10.310   19.020   149.960
8259   36.725   2.490   101.980   0.000   0.000   7.220   31.200   136.460
8260   36.725   2.430   102.990   0.000   0.000   5.230   45.340   118.340
8261   36.725   1.940   105.310   0.000   0.000   3.790   61.300   99.360
8262   36.725   1.670   104.610   0.860   0.000   2.750   75.710   81.610
8263   36.725   1.380   105.580   0.000   0.000   1.920   90.020   62.850
8264   36.725   1.340   106.040   0.810   0.000   1.360   100.380   48.550
8265   36.725   1.330   109.840   1.170   0.000   0.980   106.630   37.760
8266   36.725   1.110   109.250   1.740   0.000   0.570   110.610   29.010
8267   36.725   0.820   111.960   3.170   0.000   0.340   109.130   21.740
8268   36.725   0.450   112.600   4.520   0.420   0.270   105.780   16.240
8269   36.725   0.920   112.690   5.790   1.930   0.210   98.740   11.820
8270   36.725   0.340   111.320   8.370   4.250   0.080   88.700   9.010
8271   36.725   1.330   114.170   11.870   6.790   0.070   78.710   6.690
8272   36.725   0.700   114.110   17.340   10.620   0.130   69.420   5.400
8273   36.725   0.580   114.200   24.090   14.190   0.290   59.270   4.440
8274   36.725   0.640   113.860   34.180   17.360   0.270   50.820   3.800
8275   36.725   0.360   113.140   46.590   20.070   0.300   42.260   3.080
8276   36.725   0.870   110.630   67.260   22.890   0.370   35.340   2.460
8277   36.725   0.860   114.080   83.690   24.230   0.290   28.920   2.060
8278   36.725   0.700   108.600   105.820   24.700   0.280   24.220   1.630
8279   36.725   1.360   110.890   118.610   24.380   0.150   19.020   1.600
8280   36.725   1.130   103.060   130.650   23.380   0.220   15.150   1.440
8281   36.725   1.340   97.700   138.590   21.710   0.050   12.240   1.400
8282   36.725   1.330   91.200   142.020   19.830   0.020   8.600   1.170
8283   36.725   1.110   84.730   151.330   17.500   0.000   5.790   0.690
8284   36.725   0.600   78.560   141.650   14.770   0.000   3.690   0.480

8227   42.975   39.800   22.540   0.330   201.480   5.060   176.190   0.000
8228   42.975   37.140   24.930   0.620   201.180   6.090   159.440   0.000
8229   42.975   34.330   28.120   0.000   199.620   7.890   131.700   0.000
8230   42.975   33.520   31.730   0.550   199.760   10.790   100.070   0.000
8231   42.975   31.370   33.780   0.000   199.080   15.030   68.150   0.260
8232   42.975   29.450   35.160   0.000   197.370   21.130   42.460   0.440
8233   42.975   27.130   39.110   0.000   194.520   31.740   23.750   1.550
8234   42.975   25.610   43.130   0.000   185.340   46.520   13.940   1.380
8235   42.975   24.090   46.870   0.060   172.920   67.560   7.810   1.160
8236   42.975   22.570   50.690   0.370   155.090   92.090   4.940   1.540
8237   42.975   21.200   53.130   0.030   129.310   120.580   2.970   1.060
8238   42.975   19.510   56.090   0.000   103.120   147.020   2.010   0.930
8239   42.975   18.510   60.710   0.340   78.350   165.820   1.560   1.470
8240   42.975   17.410   64.270   0.320   54.030   178.120   1.250   2.040
8241   42.975   16.490   66.970   0.000   36.370   185.180   1.220   3.610
8242   42.975   14.500   68.850   0.000   24.880   190.170   0.770   4.610
8243   42.975   13.540   69.510   0.000   16.930   192.560   0.390   6.020
8244   42.975   12.010   69.950   0.250   11.360   194.160   0.310   8.150
8245   42.975   10.840   72.730   0.000   7.860   192.410   0.130   12.520
8246   42.975   10.060   72.580   0.610   5.600   190.270   0.000   19.240
8247   42.975   9.420   78.160   1.240   3.650   185.020   0.000   30.500
8248   42.975   8.210   77.860   0.000   2.520   175.760   0.000   45.970
8249   42.975   7.160   78.650   0.050   1.600   162.510   0.000   64.870
8250   42.975   6.830   79.620   0.000   0.970   144.950   0.000   92.430
8251   42.975   5.790   82.890   0.280   0.430   122.300   0.000   123.410
8252   42.975   5.540   87.710   0.520   0.140   96.920   0.000   149.660
8253   42.975   5.000   86.810   1.070   0.000   71.450   0.000   171.480
8254   42.975   4.280   86.290   0.500   0.000   49.750   0.000   185.620
8255   42.975   3.310   86.500   0.190   0.000   33.490   0.030   192.350
8256   42.975   2.980   88.010   0.000   0.000   22.690   3.170   193.720
8257   42.975   2.840   87.510   0.000   0.000   15.500   9.670   186.770
8258   42.975   2.070   88.760   0.000   0.000   10.890   20.380   175.700
8259   42.975   2.380   90.060   0.220   0.000   7.670   38.280   158.920
8260   42.975   1.700   91.370   0.270   0.000   5.550   61.260   137.310
8261   42.975   1.340   91.770   1.190   0.000   3.970   88.210   112.660
8262   42.975   1.110   93.260   0.720   0.000   2.810   111.380   87.190
8263   42.975   1.120   94.060   1.240   0.000   2.240   129.750   67.550
8264   42.975   0.910   93.580   1.650   0.000   1.930   141.000   51.310
8265   42.975   0.580   94.930   2.120   0.000   1.460   148.070   38.960
8266   42.975   0.460   97.090   1.580   0.000   1.230   152.340   29.150
8267   42.975   0.260   97.800   2.570   0.370   0.910   151.330   22.410
8268   42.975   0.310   97.020   3.540   3.050   0.740   143.830   17.030
8269   42.975   0.240   99.270   6.000   6.620   0.630   132.180   13.110
8270   42.975   0.000   100.940   8.090   11.560   0.640   116.440   9.820
8271   42.975   0.400   102.460   11.510   18.660   0.660   97.220   8.220
8272   42.975   0.340   103.390   13.450   25.560   0.730   77.420   7.000
8273   42.975   0.250   102.420   19.190   32.680   0.730   60.980   6.370
8274   42.975   0.050   102.930   25.600   40.370   0.690   46.910   5.530
8275   42.975   0.150   103.460   33.960   45.920   0.790   37.930   5.270
8276   42.975   0.550   102.810   49.140   50.420   0.760   29.270   4.750
8277   42.975   0.870   100.520   64.890   52.850   0.710   23.470   4.110
8278   42.975   0.520   102.120   88.050   54.110   0.530   18.760   3.310
8279   42.975   0.870   101.280   106.280   52.830   0.440   14.840   2.780
8280   42.975   0.610   98.310   123.370   48.380   0.370   11.220   2.110
8281   42.975   0.730   93.070   140.360   43.860   0.140   8.450   1.920
8282   42.975   0.940   89.960   145.520   37.760   0.090   5.720   1.130
8283   42.975   0.650   86.150   145.780   30.750   0.000   3.650   0.890
8284   42.975   0.770   81.440   152.310   25.570   0.000   2.300   0.500

8227   49.225   40.210   16.340   0.790   193.060   4.050   189.530   0.000
8228   49.225   38.000   18.810   0.470   191.900   5.530   168.020   0.000
8229   49.225   35.880   22.710   0.550   192.190   7.640   136.050   0.000
8230   49.225   34.190   24.460   0.660   193.340   11.030   98.320   0.000
8231   49.225   31.920   26.910   0.340   192.710   16.770   60.650   0.000
8232   49.225   30.770   32.060   1.360   192.300   24.810   33.690   0.140
8233   49.225   29.970   34.480   0.470   189.450   37.810   17.730   0.300
8234   49.225   27.360   37.190   0.280   182.540   56.580   9.120   0.320
8235   49.225   26.620   40.760   0.420   169.050   83.080   5.250   0.070
8236   49.225   24.370   45.130   0.270   149.000   118.080   3.340   0.000
8237   49.225   22.900   49.500   0.010   121.560   149.210   2.300   0.000
8238   49.225   20.770   51.590   0.000   93.580   171.900   1.900   0.000
8239   49.225   19.240   54.100   0.000   65.430   187.830   1.750   0.490
8240   49.225   18.640   53.800   0.000   42.330   195.350   1.720   1.630
8241   49.225   17.550   57.710   0.300   28.330   198.660   1.460   2.710
8242   49.225   16.500   58.250   0.310   18.480   203.180   1.460   3.170
8243   49.225   14.990   61.820   0.010   12.570   205.910   1.230   4.860
8244   49.225   14.090   62.580   0.250   8.560   205.120   1.060   8.340
8245   49.225   12.800   65.190   1.290   5.940   202.570   0.810   16.030
8246   49.225   11.720   68.170   0.160   3.760   197.990   0.670   27.710
8247   49.225   10.890   69.290   0.000   2.400   189.880   0.490   42.620
8248   49.225   9.820   66.880   0.160   1.470   176.290   0.090   62.490
8249   49.225   9.290   72.280   0.890   0.850   159.830   0.000   86.880
8250   49.225   8.510   73.160   0.240   0.430   139.810   0.000   122.690
8251   49.225   7.960   73.960   0.110   0.120   112.800   0.000   157.310
8252   49.225   6.740   76.560   0.840   0.000   83.740   0.000   181.910
8253   49.225   6.310   75.290   0.540   0.000   59.250   0.000   198.100
8254   49.225   4.990   76.840   0.160   0.000   40.230   0.000   204.160
8255   49.225   5.080   77.040   0.350   0.000   25.720   1.160   207.460
8256   49.225   4.720   77.300   0.000   0.000   17.420   5.640   204.180
8257   49.225   4.040   78.980   0.380   0.000   11.630   15.540   196.550
8258   49.225   3.810   79.510   0.010   0.000   7.660   33.770   180.970
8259   49.225   2.780   80.000   0.050   0.000   5.250   60.780   156.840
8260   49.225   3.010   81.810   0.630   0.000   3.620   92.240   124.870
8261   49.225   2.460   80.870   0.080   0.000   2.480   122.450   95.040
8262   49.225   2.210   83.220   0.270   0.000   1.810   142.680   69.170
8263   49.225   2.400   82.530   0.170   0.000   1.600   157.460   50.290
8264   49.225   1.590   82.410   0.270   0.000   1.050   165.870   36.810
8265   49.225   1.550   87.370   0.000   0.000   0.870   168.340   27.760
8266   49.225   1.630   89.360   0.960   0.580   0.480   166.220   20.050
8267   49.225   1.440   91.690   1.430   3.040   0.220   156.810   15.370
8268   49.225   0.910   93.270   2.400   7.130   0.190   141.590   12.160
8269   49.225   1.020   95.630   2.940   13.830   0.110   122.270   9.600
8270   49.225   0.830   94.690   3.220   21.790   0.250   98.000   7.650
8271   49.225   0.780   96.440   5.220   31.500   0.270   75.640   6.370
8272   49.225   1.620   97.720   6.750   40.860   0.450   55.000   5.760
8273   49.225   0.730   96.620   10.680   50.070   0.510   40.160   5.110
8274   49.225   1.650   100.130   15.930   57.060   0.650   30.550   4.380
8275   49.225   1.660   101.680   21.400   63.390   0.640   23.010   3.700
8276   49.225   1.460   100.100   29.620   68.690   0.720   18.140   2.940
8277   49.225   1.460   99.380   41.550   71.720   0.650   14.400   2.460
8278   49.225   0.760   97.470   55.360   70.610   0.590   11.610   1.850
8279   49.225   1.260   93.730   71.800   68.010   0.430   8.780   1.330
8280   49.225   0.820   85.260   87.950   62.270   0.310   6.610   0.650
8281   49.225   0.400   77.880   103.180   54.620   0.160   5.170   0.320
8282   49.225   0.590   70.760   113.150   46.200   0.000   3.550   0.160
8283   49.225   1.300   69.120   125.050   37.000   0.000   1.980   0.000
8284   49.225   1.110   62.070   146.220   29.100   0.000   0.640   0.000

8227   55.475   36.680   20.420   1.140   185.350   4.090   186.170   0.000
8228   55.475   34.120   22.930   1.160   182.050   5.610   163.180   0.000
8229   55.475   32.600   23.280   1.620   184.410   8.280   127.660   0.000
8230   55.475   30.510   23.860   1.310   184.760   11.980   92.730   0.000
8231   55.475   27.630   28.420   1.510   187.600   17.650   55.250   0.160
8232   55.475   26.210   32.160   1.350   190.300   27.030   30.160   0.270
8233   55.475   25.570   35.420   1.230   190.270   41.270   15.770   0.210
8234   55.475   22.960   37.280   1.120   188.580   61.990   8.130   0.100
8235   55.475   21.540   38.720   1.450   181.790   91.800   4.190   0.000
8236   55.475   19.860   42.280   2.170   162.760   126.150   2.520   0.000
8237   55.475   19.180   44.390   1.320   137.450   157.600   1.660   0.000
8238   55.475   17.030   47.000   0.660   105.880   182.600   1.200   0.000
8239   55.475   15.570   48.460   1.840   75.320   199.010   1.290   0.300
8240   55.475   14.680   50.810   1.170   48.590   204.370   1.110   1.560
8241   55.475   13.180   52.790   1.640   30.760   206.240   1.240   2.690
8242   55.475   12.140   55.610   0.940   19.670   209.990   1.200   3.370
8243   55.475   11.550   58.010   1.250   12.820   211.150   1.070   4.870
8244   55.475   10.650   62.230   1.880   8.310   208.200   0.670   9.060
8245   55.475   9.860   62.990   2.390   5.920   203.840   0.260   17.850
8246   55.475   8.990   67.870   1.790   3.700   197.390   0.200   29.060
8247   55.475   7.300   67.850   0.920   2.560   187.260   0.110   42.780
8248   55.475   7.390   68.630   1.760   1.830   169.170   0.000   60.110
8249   55.475   6.890   71.090   1.420   1.190   151.810   0.000   84.290
8250   55.475   6.160   72.710   0.700   0.720   133.020   0.000   116.780
8251   55.475   5.050   75.690   1.160   0.420   106.450   0.000   148.300
8252   55.475   4.100   74.800   3.020   0.150   79.220   0.000   171.600
8253   55.475   3.300   76.640   1.240   0.180   56.810   0.000   188.430
8254   55.475   3.710   74.180   1.400   0.000   37.400   0.000   197.980
8255   55.475   2.870   74.160   0.340   0.000   24.060   2.470   199.570
8256   55.475   2.490   76.500   0.400   0.000   15.880   8.760   195.680
8257   55.475   2.080   76.350   1.050   0.000   10.300   21.380   186.220
8258   55.475   1.890   81.500   0.390   0.000   6.640   39.970   168.300
8259   55.475   1.050   81.420   1.150   0.000   4.350   68.320   142.590
8260   55.475   0.760   81.680   0.920   0.000   3.190   101.210   116.470
8261   55.475   0.890   80.040   0.010   0.000   2.110   124.140   89.650
8262   55.475   0.810   81.340   1.080   0.000   1.490   140.360   61.740
8263   55.475   0.570   81.440   0.090   0.000   1.100   151.410   44.480
8264   55.475   0.240   86.010   0.000   0.000   0.840   155.680   33.110
8265   55.475   0.720   88.380   0.480   0.000   0.520   156.450   23.910
8266   55.475   0.300   90.700   1.160   1.400   0.140   151.460   17.570
8267   55.475   0.210   93.480   1.870   4.070   0.020   140.670   13.050
8268   55.475   0.000   94.390   1.970   8.700   0.000   123.460   9.730
8269   55.475   1.120   99.920   2.400   17.540   0.000   104.360   7.600
8270   55.475   0.240   102.500   3.990   28.190   0.000   82.180   6.150
8271   55.475   0.930   99.820   4.570   40.930   0.000   59.810   5.530
8272   55.475   0.900   102.950   7.250   54.850   0.250   41.410   5.030
8273   55.475   1.170   102.010   11.120   66.330   0.400   30.870   4.360
8274   55.475   1.110   106.120   16.210   77.320   0.350   22.280   3.900
8275   55.475   1.180   107.850   23.860   85.750   0.390   16.890   3.060
8276   55.475   1.240   106.930   31.860   90.020   0.400   12.940   2.520
8277   55.475   1.550   106.880   45.440   92.070   0.250   9.820   1.740
8278   55.475   1.320   104.470   61.550   89.680   0.270   7.500   1.580
8279   55.475   0.970   100.820   81.110   81.360   0.250   5.920   1.050
8280   55.475   1.150   94.390   99.490   71.530   0.020   4.400   0.750
8281   55.475   1.150   89.620   117.770   60.710   0.000   3.280   0.810
8282   55.475   1.150   79.390   129.670   48.020   0.000   2.020   0.230
8283   55.475   1.390   73.550   136.770   36.410   0.000   1.170   0.000
8284   55.475   1.500   66.570   142.590   26.810   0.000   0.350   0.000

8227   61.725   35.580   15.690   0.930   169.210   4.160   193.540   0.000
8228   61.725   33.200   15.550   2.120   167.370   5.440   164.810   0.000
8229   61.725   31.480   19.840   1.080   164.450   7.500   128.090   0.000
8230   61.725   29.000   19.660   1.970   165.330   11.090   89.030   0.000
8231   61.725   26.190   22.620   1.380   163.990   16.030   49.950   0.530
8232   61.725   25.990   26.180   2.270   168.420   25.320   26.500   0.620
8233   61.725   24.730   26.260   1.270   177.230   40.610   13.010   0.240
8234   61.725   23.150   25.930   1.180   181.620   64.970   6.620   0.000
8235   61.725   23.830   27.630   0.960   174.850   98.350   3.750   0.000
8236   61.725   21.100   29.150   0.250   153.810   131.610   2.210   0.000
8237   61.725   20.730   31.520   1.190   125.200   158.590   1.710   0.000
8238   61.725   20.140   33.360   1.100   93.710   184.870   1.370   0.000
8239   61.725   17.770   30.110   0.400   62.140   193.790   1.500   1.390
8240   61.725   18.010   39.160   0.960   40.220   195.080   1.490   2.450
8241   61.725   16.040   40.040   1.040   25.860   200.350   1.400   3.010
8242   61.725   15.020   43.040   1.590   17.250   205.410   1.260   3.790
8243   61.725   15.090   46.450   0.720   11.070   204.790   1.250   6.010
8244   61.725   13.380   44.750   1.500   7.480   198.780   1.040   13.240
8245   61.725   13.100   48.800   1.240   5.330   190.320   0.660   26.200
8246   61.725   13.020   50.530   1.210   3.520   178.100   0.670   40.670
8247   61.725   11.670   50.010   0.240   2.760   154.740   0.340   53.540
8248   61.725   9.920   52.030   1.290   1.920   134.820   0.000   70.220
8249   61.725   10.440   51.020   0.620   1.540   118.380   0.000   97.580
8250   61.725   10.400   51.320   1.760   1.110   100.010   0.000   132.250
8251   61.725   8.440   53.160   0.750   0.760   76.890   0.000   161.920
8252   61.725   8.840   52.630   0.500   0.580   56.000   0.000   184.690
8253   61.725   7.610   55.630   0.090   0.420   37.380   0.000   196.490
8254   61.725   7.540   53.810   0.640   0.150   23.610   2.190   193.580
8255   61.725   7.700   51.760   1.160   0.090   16.010   7.750   187.730
8256   61.725   6.920   54.470   1.090   0.000   10.440   18.730   180.960
8257   61.725   7.030   54.600   2.010   0.000   6.750   38.600   165.470
8258   61.725   6.870   56.490   1.790   0.000   4.620   65.640   142.400
8259   61.725   6.260   52.510   2.080   0.000   3.080   96.230   114.660
8260   61.725   6.620   54.890   0.510   0.000   2.270   126.130   85.230
8261   61.725   6.850   56.910   1.310   0.000   1.890   146.020   59.200
8262   61.725   5.420   54.400   1.300   0.000   1.580   156.390   44.130
8263   61.725   5.220   57.940   1.210   0.000   1.280   164.370   32.360
8264   61.725   5.180   58.290   1.370   0.000   0.930   161.220   22.870
8265   61.725   4.390   60.340   0.530   0.970   0.430   152.780   16.020
8266   61.725   3.960   59.120   1.310   3.410   0.310   136.900   11.520
8267   61.725   4.160   61.460   1.950   8.200   0.200   118.640   8.470
8268   61.725   3.150   64.290   2.080   16.180   0.100   99.220   6.320
8269   61.725   3.830   69.190   3.040   31.100   0.410   75.410   5.360
8270   61.725   3.230   67.190   4.140   45.900   0.560   53.420   4.780
8271   61.725   2.810   69.930   5.460   61.150   0.660   37.970   4.190
8272   61.725   3.300   72.100   8.250   76.980   0.560   26.530   3.670
8273   61.725   2.910   73.560   11.870   90.100   0.630   17.770   3.090
8274   61.725   2.530   76.990   17.180   104.890   0.600   12.220   1.980
8275   61.725   1.100   79.670   22.800   111.210   0.500   8.440   1.100
8276   61.725   0.920   80.040   30.910   114.630   0.310   6.180   0.540
8277   61.725   0.870   79.080   45.750   113.020   0.200   4.480   0.070
8278   61.725   0.260   73.090   66.100   106.440   0.040   2.670   0.000
8279   61.725   0.020   65.330   82.460   92.090   0.010   1.820   0.000
8280   61.725   0.160   54.570   99.680   74.430   0.000   0.870   0.000
8281   61.725   0.000   46.810   115.080   58.470   0.000   0.320   0.000
8282   61.725   0.000   51.070   127.300   42.600   0.000   0.000   0.000
8283   61.725   1.450   44.260   140.990   29.520   0.000   0.000   0.000
8284   61.725   0.110   39.650   146.310   19.940   0.000   0.000   0.000

8227   67.975   33.950   19.300   1.710   132.440   4.490   192.600   0.000
8228   67.975   29.870   19.080   2.010   129.750   5.410   160.360   0.000
8229   67.975   30.110   21.330   1.530   126.780   7.360   121.140   0.000
8230   67.975   28.420   20.460   0.640   126.360   10.440   81.380   0.130
8231   67.975   27.660   27.360   1.640   127.580   14.990   48.070   2.110
8232   67.975   25.750   30.340   1.620   131.020   23.340   26.050   2.490
8233   67.975   26.570   29.010   0.880   139.180   38.040   12.620   1.710
8234   67.975   21.930   25.680   2.040   151.870   65.830   6.210   0.330
8235   67.975   19.500   30.110   1.500   150.110   105.080   3.660   0.240
8236   67.975   20.440   29.880   1.030   130.830   136.670   2.660   0.180
8237   67.975   23.150   30.920   1.030   102.590   161.980   1.990   0.100
8238   67.975   17.820   31.210   0.470   73.140   183.510   1.870   0.440
8239   67.975   18.300   36.090   0.960   49.440   189.210   1.730   3.310
8240   67.975   16.810   38.380   2.040   30.110   192.330   1.850   4.530
8241   67.975   16.980   37.520   0.780   18.380   200.430   1.760   4.350
8242   67.975   15.320   37.940   0.950   10.730   203.130   1.660   4.780
8243   67.975   15.170   38.010   1.060   6.790   198.720   1.590   8.900
8244   67.975   15.570   35.050   1.130   4.380   189.320   1.140   21.930
8245   67.975   9.330   33.860   1.170   2.750   176.690   0.740   36.840
8246   67.975   12.530   36.350   1.130   1.680   152.940   0.330   49.430
8247   67.975   12.780   38.210   0.000   1.140   125.240   0.080   65.880
8248   67.975   10.450   35.870   0.450   0.820   109.190   0.090   83.640
8249   67.975   10.630   35.890   0.230   0.490   94.960   0.000   108.710
8250   67.975   11.120   36.600   1.090   0.260   75.900   0.000   135.760
8251   67.975   10.500   35.840   1.620   0.290   55.490   0.000   161.310
8252   67.975   13.290   37.660   1.400   0.280   36.740   0.000   178.790
8253   67.975   11.660   37.620   0.340   0.000   23.540   0.860   175.260
8254   67.975   10.020   41.520   0.210   0.000   15.880   5.840   165.930
8255   67.975   9.730   41.540   1.290   0.000   10.560   16.030   164.850
8256   67.975   7.140   39.640   0.000   0.000   6.750   34.380   153.460
8257   67.975   6.030   39.690   0.000   0.000   4.600   58.520   134.780
8258   67.975   9.590   35.440   0.780   0.000   3.080   84.850   110.040
8259   67.975   6.850   39.440   1.540   0.000   2.210   108.760   87.130
8260   67.975   7.670   37.850   0.710   0.000   1.870   132.720   61.050
8261   67.975   6.510   41.080   0.000   0.000   1.630   148.530   45.760
8262   67.975   8.190   41.170   0.510   0.000   1.370   156.280   33.810
8263   67.975   7.290   45.090   0.510   0.000   0.860   157.360   25.300
8264   67.975   6.580   39.870   0.480   0.000   0.400   149.270   17.660
8265   67.975   6.930   41.200   1.050   0.450   0.040   129.470   12.400
8266   67.975   3.590   39.360   1.950   2.630   0.000   111.860   8.710
8267   67.975   5.960   42.220   1.200   8.070   0.000   93.150   6.550
8268   67.975   5.040   47.080   1.410   18.660   0.000   73.680   5.650
8269   67.975   6.000   56.260   1.090   34.040   0.050   53.950   5.490
8270   67.975   7.170   57.080   2.410   51.670   0.200   36.180   4.930
8271   67.975   7.670   57.060   2.370   65.370   0.260   24.660   3.950
8272   67.975   7.100   59.410   4.340   79.570   0.270   16.360   3.250
8273   67.975   3.630   61.350   5.130   91.530   0.000   10.320   2.310
8274   67.975   5.380   64.040   7.850   102.270   0.000   6.640   1.630
8275   67.975   2.640   71.030   12.320   110.360   0.000   4.560   1.100
8276   67.975   4.080   80.400   17.850   110.780   0.000   2.590   0.170
8277   67.975   4.510   79.460   27.960   104.320   0.000   1.410   0.560
8278   67.975   1.900   75.660   38.490   92.440   0.000   0.500   0.150
8279   67.975   2.100   60.280   54.100   77.400   0.000   0.110   0.240
8280   67.975   0.000   49.170   64.110   58.240   0.000   0.000   0.000
8281   67.975   0.000   37.330   78.630   40.780   0.000   0.000   0.000
8282   67.975   0.000   24.940   86.890   27.650   0.240   0.000   0.000
8283   67.975   0.000   15.110   86.450   16.490   2.070   0.000   0.000
8284   67.975   0.000   22.280   82.290   10.220   3.390   0.000   0.000

$$


$penalty_data.wild_type

lin	time	hunchback	Kruppel	giant	knirps

1028	-17.15	22.97	-1	-1	-1
1029	-17.15	17.49	-1	-1	-1
1030	-17.15	10.41	-1	-1	-1
1031	-17.15	3.85	-1	-1	-1
1032	-17.15	1.66	-1	-1	-1
1033	-17.15	0	-1	-1	-1
1034	-17.15	0	-1	-1	-1
1035	-17.15	0	-1	-1	-1

2057	-6.2	28.35	6.18	5.38	0
2058	-6.2	23	6.88	4.55	0
2059	-6.2	18.15	6.76	4.09	0
2060	-6.2	11.75	6.57	2.9	0
2061	-6.2	8.26	5.56	2.66	0.9
2062	-6.2	5.11	4.55	1.55	1.66
2063	-6.2	2.74	3.96	2.21	1.68
2064	-6.2	1.33	3.43	2.5	0.72
2065	-6.2	0.9	2.42	0.5	2.09
2066	-6.2	0.44	1.67	1.48	0.59
2067	-6.2	0	1.5	1.14	1.23
2068	-6.2	0	0.06	3.32	1.12
2069	-6.2	0	0	4.15	0.9
2070	-6.2	0.09	0.32	5.33	2.29
2071	-6.2	0.45	0.38	8.8	0.84

4113	10.55	80.13	4.75	20.29	1.42
4114	10.55	76.01	6.46	17.92	1.78
4115	10.55	70.56	8.31	14.7	0
4116	10.55	63.68	10.49	10.94	1.31
4117	10.55	57.16	13.13	7.1	2.15
4118	10.55	48.19	16.1	4.8	1.71
4119	10.55	39.78	19.23	3.94	1.79
4120	10.55	30.64	22.33	3.25	2.55
4121	10.55	23.22	23.8	2.84	5.13
4122	10.55	17.11	25.09	3.09	6.91
4123	10.55	13.36	25.8	3.29	10.91
4124	10.55	9.99	24.11	3.54	15.62
4125	10.55	7.24	21.56	3.1	24.34
4126	10.55	5.31	18.89	3.46	33.33
4127	10.55	3.83	14.84	4.08	42.46
4128	10.55	2.75	12.05	4.41	49.62
4129	10.55	1.93	10.12	5.88	47.93
4130	10.55	1.23	7.08	7.93	45.96
4131	10.55	0.8	5.02	7.84	46.14
4132	10.55	0.36	3.62	10	36.44
4133	10.55	0	2	9.94	29.84
4134	10.55	0	1.19	12.67	21.27
4135	10.55	0	0.62	15.49	17.16
4136	10.55	0	0	17.05	10.75
4137	10.55	0	0	16.91	9.76
4138	10.55	0	0	17.44	9.28
4139	10.55	0	0	18.94	11.02
4140	10.55	0	0.04	18.21	12.3
4141	10.55	0	0.74	18.14	10.94
4142	10.55	0	0.86	17.48	9.66

8227	24.225	136.58	9.56	55.8	0.25
8228	24.225	132.55	12.15	48.68	0
8229	24.225	127.89	14.32	41.44	0
8230	24.225	123.35	17.72	34.72	0
8231	24.225	119.45	21.85	26.65	0.08
8232	24.225	112.31	27.24	21.23	0.23
8233	24.225	104.02	32.77	15.06	0
8234	24.225	95.34	39.42	11.02	0.19
8235	24.225	86.09	46.49	7.75	0
8236	24.225	75.35	54.6	5.06	0.27
8237	24.225	64.48	62.14	3.61	0.14
8238	24.225	54.31	67.99	2.9	0.1
8239	24.225	45.23	75.3	2.1	0.27
8240	24.225	36.12	81.64	1.34	0.82
8241	24.225	28.34	86.81	0.94	2.04
8242	24.225	22.03	92.03	0.8	2.01
8243	24.225	17.23	94.53	0.37	3.19
8244	24.225	13.25	95.09	0.55	4.74
8245	24.225	10.38	96.97	0.46	8.47
8246	24.225	7.89	96.21	0.3	9.74
8247	24.225	5.94	95.29	0.02	14.47
8248	24.225	4.66	91.39	0	20.24
8249	24.225	3.45	87.12	0	27.41
8250	24.225	2.6	80.54	0	35.42
8251	24.225	1.78	72.98	0	43.34
8252	24.225	1.18	64.82	0.01	52.9
8253	24.225	0.72	55.85	0.33	60.34
8254	24.225	0.28	47.65	0.92	65.79
8255	24.225	0	38.91	1.7	72.82
8256	24.225	0	31.46	3.41	74.57
8257	24.225	0	24.4	4.97	75.59
8258	24.225	0	18.83	7.1	75.47
8259	24.225	0	15.05	10.14	74.89
8260	24.225	0	11.56	14.78	72.44
8261	24.225	0	9.11	17.99	67.3
8262	24.225	0	7.14	22.63	61.57
8263	24.225	0	5.67	29.46	55.64
8264	24.225	0	4.28	33.53	49.27
8265	24.225	0	3.3	39.87	41.11
8266	24.225	0	2.27	45.64	33.59
8267	24.225	0	1.91	51.32	27.66
8268	24.225	0	1.49	55.86	22.22
8269	24.225	0	1.12	59.33	16.94
8270	24.225	0	0.62	61.94	12.62
8271	24.225	0	0.6	63.25	10.38
8272	24.225	0	0.35	65.71	7.1
8273	24.225	0.17	0	64.04	5.81
8274	24.225	0.41	0	63.03	4.27
8275	24.225	0.91	0	60.55	3.05
8276	24.225	1.46	0	56.28	2.55
8277	24.225	1.84	0	52.03	1.76
8278	24.225	2.35	0	48.48	1.35
8279	24.225	2.83	0.12	44.33	1.44
8280	24.225	3.46	0.09	40.9	1.22
8281	24.225	4.04	0.36	37.6	0.76
8282	24.225	4.5	0.5	33.77	0.76
8283	24.225	4.96	0.44	29.99	0.7
8284	24.225	5.21	0.52	26.61	0.01

8227	30.475	164.38	9.22	92.64	0.07
8228	30.475	161.42	12.17	79.73	0
8229	30.475	158.63	15.63	64.96	0.08
8230	30.475	152.64	19.99	50.62	0
8231	30.475	148.28	26.48	37.38	0.16
8232	30.475	140.58	33.59	26.11	0.8
8233	30.475	130.04	42.4	18.1	0.49
8234	30.475	118	53.5	12.61	0.97
8235	30.475	102.68	65.47	8.69	1.1
8236	30.475	86.95	79.86	6.48	1.28
8237	30.475	72.37	92.79	4.61	1.5
8238	30.475	56.2	104.83	3.58	1.15
8239	30.475	43.28	115.04	2.84	1.74
8240	30.475	32.23	124.76	1.97	2.31
8241	30.475	24.17	131.11	1.65	2.45
8242	30.475	18.25	133.27	1.24	3.4
8243	30.475	13.75	136.41	0.77	4.53
8244	30.475	10.36	137.16	0.6	5.91
8245	30.475	7.64	135.86	0.75	9.42
8246	30.475	5.78	131.79	0.76	13.7
8247	30.475	4.5	125.5	0.37	20.55
8248	30.475	3.4	117.62	0	29.56
8249	30.475	2.36	108.62	0.09	41.41
8250	30.475	1.66	98.44	0	54.07
8251	30.475	1.15	83.94	0	68.82
8252	30.475	0.77	70.44	0	83.7
8253	30.475	0.43	57.43	0	97.76
8254	30.475	0.02	45.44	0.23	109.54
8255	30.475	0	35.24	1.19	116.13
8256	30.475	0	26.74	2.59	120.8
8257	30.475	0	20.39	5.32	121.37
8258	30.475	0	14.69	9.14	119.05
8259	30.475	0	10.9	14.19	114.27
8260	30.475	0	7.85	21.16	106.43
8261	30.475	0	5.78	30.69	95.84
8262	30.475	0	4.09	39.67	82.02
8263	30.475	0	2.71	48.48	70.77
8264	30.475	0	2.02	57.46	58.57
8265	30.475	0	1.44	65.28	46.43
8266	30.475	0	0.71	71.63	35.76
8267	30.475	0	0.45	76.75	29.18
8268	30.475	0	0.22	79.08	23.03
8269	30.475	0	0.16	80.41	17.19
8270	30.475	0	0	78.17	14.27
8271	30.475	0.59	0	74.45	10.5
8272	30.475	1.45	0	69.57	8.81
8273	30.475	2.32	0	63.31	7.22
8274	30.475	3.89	0	56.67	6.12
8275	30.475	5.22	0	49.52	5.2
8276	30.475	6.59	0.03	44.1	4.17
8277	30.475	7.72	0.05	38.34	3.32
8278	30.475	8.63	0.09	33.27	3.02
8279	30.475	9.4	0	28.13	2.76
8280	30.475	9.45	0	24.31	1.97
8281	30.475	10.18	0.07	19.9	1.75
8282	30.475	10.02	0.07	16.65	1.44
8283	30.475	9.53	0.22	13.8	0.9
8284	30.475	9.82	0.34	11.14	0.73

8227	36.725	193.79	5.18	137.35	0
8228	36.725	190.73	6.96	119.99	0
8229	36.725	188.05	9	98.37	0
8230	36.725	184.31	11.54	75.02	0
8231	36.725	179.98	15.68	53.78	0
8232	36.725	173.38	22.04	35.84	0
8233	36.725	166.03	31.75	23.55	0
8234	36.725	154.49	43.54	15.69	0
8235	36.725	139.2	59.59	10.28	0
8236	36.725	120.09	78.35	6.33	0
8237	36.725	96.92	100.32	4.47	0
8238	36.725	75.63	118.81	3.1	0
8239	36.725	56.39	134.89	2	0
8240	36.725	40.12	148.22	1.65	0
8241	36.725	29.13	155.99	1.19	0.41
8242	36.725	21.18	159.66	0.76	1.57
8243	36.725	15.48	162.07	0.56	3.16
8244	36.725	10.83	162.45	0.33	5.27
8245	36.725	7.62	161.49	0.22	8.68
8246	36.725	5.73	157.9	0.07	14.8
8247	36.725	3.83	152.67	0	24.28
8248	36.725	2.79	144.47	0	37.82
8249	36.725	1.99	132.68	0	53.63
8250	36.725	1.22	116.72	0	74.13
8251	36.725	0.7	97.61	0	95.89
8252	36.725	0.24	78.43	0	117.02
8253	36.725	0.11	58.99	0	136.13
8254	36.725	0	43.05	0	149.68
8255	36.725	0	30.49	1.33	157.06
8256	36.725	0	21.05	4.3	159.2
8257	36.725	0	14.98	10.48	156.38
8258	36.725	0	10.31	19.02	149.96
8259	36.725	0	7.22	31.2	136.46
8260	36.725	0	5.23	45.34	118.34
8261	36.725	0	3.79	61.3	99.36
8262	36.725	0	2.75	75.71	81.61
8263	36.725	0	1.92	90.02	62.85
8264	36.725	0	1.36	100.38	48.55
8265	36.725	0	0.98	106.63	37.76
8266	36.725	0	0.57	110.61	29.01
8267	36.725	0	0.34	109.13	21.74
8268	36.725	0.42	0.27	105.78	16.24
8269	36.725	1.93	0.21	98.74	11.82
8270	36.725	4.25	0.08	88.7	9.01
8271	36.725	6.79	0.07	78.71	6.69
8272	36.725	10.62	0.13	69.42	5.4
8273	36.725	14.19	0.29	59.27	4.44
8274	36.725	17.36	0.27	50.82	3.8
8275	36.725	20.07	0.3	42.26	3.08
8276	36.725	22.89	0.37	35.34	2.46
8277	36.725	24.23	0.29	28.92	2.06
8278	36.725	24.7	0.28	24.22	1.63
8279	36.725	24.38	0.15	19.02	1.6
8280	36.725	23.38	0.22	15.15	1.44
8281	36.725	21.71	0.05	12.24	1.4
8282	36.725	19.83	0.02	8.6	1.17
8283	36.725	17.5	0	5.79	0.69
8284	36.725	14.77	0	3.69	0.48

8227	42.975	201.48	5.06	176.19	0
8228	42.975	201.18	6.09	159.44	0
8229	42.975	199.62	7.89	131.7	0
8230	42.975	199.76	10.79	100.07	0
8231	42.975	199.08	15.03	68.15	0.26
8232	42.975	197.37	21.13	42.46	0.44
8233	42.975	194.52	31.74	23.75	1.55
8234	42.975	185.34	46.52	13.94	1.38
8235	42.975	172.92	67.56	7.81	1.16
8236	42.975	155.09	92.09	4.94	1.54
8237	42.975	129.31	120.58	2.97	1.06
8238	42.975	103.12	147.02	2.01	0.93
8239	42.975	78.35	165.82	1.56	1.47
8240	42.975	54.03	178.12	1.25	2.04
8241	42.975	36.37	185.18	1.22	3.61
8242	42.975	24.88	190.17	0.77	4.61
8243	42.975	16.93	192.56	0.39	6.02
8244	42.975	11.36	194.16	0.31	8.15
8245	42.975	7.86	192.41	0.13	12.52
8246	42.975	5.6	190.27	0	19.24
8247	42.975	3.65	185.02	0	30.5
8248	42.975	2.52	175.76	0	45.97
8249	42.975	1.6	162.51	0	64.87
8250	42.975	0.97	144.95	0	92.43
8251	42.975	0.43	122.3	0	123.41
8252	42.975	0.14	96.92	0	149.66
8253	42.975	0	71.45	0	171.48
8254	42.975	0	49.75	0	185.62
8255	42.975	0	33.49	0.03	192.35
8256	42.975	0	22.69	3.17	193.72
8257	42.975	0	15.5	9.67	186.77
8258	42.975	0	10.89	20.38	175.7
8259	42.975	0	7.67	38.28	158.92
8260	42.975	0	5.55	61.26	137.31
8261	42.975	0	3.97	88.21	112.66
8262	42.975	0	2.81	111.38	87.19
8263	42.975	0	2.24	129.75	67.55
8264	42.975	0	1.93	141	51.31
8265	42.975	0	1.46	148.07	38.96
8266	42.975	0	1.23	152.34	29.15
8267	42.975	0.37	0.91	151.33	22.41
8268	42.975	3.05	0.74	143.83	17.03
8269	42.975	6.62	0.63	132.18	13.11
8270	42.975	11.56	0.64	116.44	9.82
8271	42.975	18.66	0.66	97.22	8.22
8272	42.975	25.56	0.73	77.42	7
8273	42.975	32.68	0.73	60.98	6.37
8274	42.975	40.37	0.69	46.91	5.53
8275	42.975	45.92	0.79	37.93	5.27
8276	42.975	50.42	0.76	29.27	4.75
8277	42.975	52.85	0.71	23.47	4.11
8278	42.975	54.11	0.53	18.76	3.31
8279	42.975	52.83	0.44	14.84	2.78
8280	42.975	48.38	0.37	11.22	2.11
8281	42.975	43.86	0.14	8.45	1.92
8282	42.975	37.76	0.09	5.72	1.13
8283	42.975	30.75	0	3.65	0.89
8284	42.975	25.57	0	2.3	0.5

8227	49.225	193.06	4.05	189.53	0
8228	49.225	191.9	5.53	168.02	0
8229	49.225	192.19	7.64	136.05	0
8230	49.225	193.34	11.03	98.32	0
8231	49.225	192.71	16.77	60.65	0
8232	49.225	192.3	24.81	33.69	0.14
8233	49.225	189.45	37.81	17.73	0.3
8234	49.225	182.54	56.58	9.12	0.32
8235	49.225	169.05	83.08	5.25	0.07
8236	49.225	149	118.08	3.34	0
8237	49.225	121.56	149.21	2.3	0
8238	49.225	93.58	171.9	1.9	0
8239	49.225	65.43	187.83	1.75	0.49
8240	49.225	42.33	195.35	1.72	1.63
8241	49.225	28.33	198.66	1.46	2.71
8242	49.225	18.48	203.18	1.46	3.17
8243	49.225	12.57	205.91	1.23	4.86
8244	49.225	8.56	205.12	1.06	8.34
8245	49.225	5.94	202.57	0.81	16.03
8246	49.225	3.76	197.99	0.67	27.71
8247	49.225	2.4	189.88	0.49	42.62
8248	49.225	1.47	176.29	0.09	62.49
8249	49.225	0.85	159.83	0	86.88
8250	49.225	0.43	139.81	0	122.69
8251	49.225	0.12	112.8	0	157.31
8252	49.225	0	83.74	0	181.91
8253	49.225	0	59.25	0	198.1
8254	49.225	0	40.23	0	204.16
8255	49.225	0	25.72	1.16	207.46
8256	49.225	0	17.42	5.64	204.18
8257	49.225	0	11.63	15.54	196.55
8258	49.225	0	7.66	33.77	180.97
8259	49.225	0	5.25	60.78	156.84
8260	49.225	0	3.62	92.24	124.87
8261	49.225	0	2.48	122.45	95.04
8262	49.225	0	1.81	142.68	69.17
8263	49.225	0	1.6	157.46	50.29
8264	49.225	0	1.05	165.87	36.81
8265	49.225	0	0.87	168.34	27.76
8266	49.225	0.58	0.48	166.22	20.05
8267	49.225	3.04	0.22	156.81	15.37
8268	49.225	7.13	0.19	141.59	12.16
8269	49.225	13.83	0.11	122.27	9.6
8270	49.225	21.79	0.25	98	7.65
8271	49.225	31.5	0.27	75.64	6.37
8272	49.225	40.86	0.45	55	5.76
8273	49.225	50.07	0.51	40.16	5.11
8274	49.225	57.06	0.65	30.55	4.38
8275	49.225	63.39	0.64	23.01	3.7
8276	49.225	68.69	0.72	18.14	2.94
8277	49.225	71.72	0.65	14.4	2.46
8278	49.225	70.61	0.59	11.61	1.85
8279	49.225	68.01	0.43	8.78	1.33
8280	49.225	62.27	0.31	6.61	0.65
8281	49.225	54.62	0.16	5.17	0.32
8282	49.225	46.2	0	3.55	0.16
8283	49.225	37	0	1.98	0
8284	49.225	29.1	0	0.64	0

8227	55.475	185.35	4.09	186.17	0
8228	55.475	182.05	5.61	163.18	0
8229	55.475	184.41	8.28	127.66	0
8230	55.475	184.76	11.98	92.73	0
8231	55.475	187.6	17.65	55.25	0.16
8232	55.475	190.3	27.03	30.16	0.27
8233	55.475	190.27	41.27	15.77	0.21
8234	55.475	188.58	61.99	8.13	0.1
8235	55.475	181.79	91.8	4.19	0
8236	55.475	162.76	126.15	2.52	0
8237	55.475	137.45	157.6	1.66	0
8238	55.475	105.88	182.6	1.2	0
8239	55.475	75.32	199.01	1.29	0.3
8240	55.475	48.59	204.37	1.11	1.56
8241	55.475	30.76	206.24	1.24	2.69
8242	55.475	19.67	209.99	1.2	3.37
8243	55.475	12.82	211.15	1.07	4.87
8244	55.475	8.31	208.2	0.67	9.06
8245	55.475	5.92	203.84	0.26	17.85
8246	55.475	3.7	197.39	0.2	29.06
8247	55.475	2.56	187.26	0.11	42.78
8248	55.475	1.83	169.17	0	60.11
8249	55.475	1.19	151.81	0	84.29
8250	55.475	0.72	133.02	0	116.78
8251	55.475	0.42	106.45	0	148.3
8252	55.475	0.15	79.22	0	171.6
8253	55.475	0.18	56.81	0	188.43
8254	55.475	0	37.4	0	197.98
8255	55.475	0	24.06	2.47	199.57
8256	55.475	0	15.88	8.76	195.68
8257	55.475	0	10.3	21.38	186.22
8258	55.475	0	6.64	39.97	168.3
8259	55.475	0	4.35	68.32	142.59
8260	55.475	0	3.19	101.21	116.47
8261	55.475	0	2.11	124.14	89.65
8262	55.475	0	1.49	140.36	61.74
8263	55.475	0	1.1	151.41	44.48
8264	55.475	0	0.84	155.68	33.11
8265	55.475	0	0.52	156.45	23.91
8266	55.475	1.4	0.14	151.46	17.57
8267	55.475	4.07	0.02	140.67	13.05
8268	55.475	8.7	0	123.46	9.73
8269	55.475	17.54	0	104.36	7.6
8270	55.475	28.19	0	82.18	6.15
8271	55.475	40.93	0	59.81	5.53
8272	55.475	54.85	0.25	41.41	5.03
8273	55.475	66.33	0.4	30.87	4.36
8274	55.475	77.32	0.35	22.28	3.9
8275	55.475	85.75	0.39	16.89	3.06
8276	55.475	90.02	0.4	12.94	2.52
8277	55.475	92.07	0.25	9.82	1.74
8278	55.475	89.68	0.27	7.5	1.58
8279	55.475	81.36	0.25	5.92	1.05
8280	55.475	71.53	0.02	4.4	0.75
8281	55.475	60.71	0	3.28	0.81
8282	55.475	48.02	0	2.02	0.23
8283	55.475	36.41	0	1.17	0
8284	55.475	26.81	0	0.35	0

8227	61.725	169.21	4.16	193.54	0
8228	61.725	167.37	5.44	164.81	0
8229	61.725	164.45	7.5	128.09	0
8230	61.725	165.33	11.09	89.03	0
8231	61.725	163.99	16.03	49.95	0.53
8232	61.725	168.42	25.32	26.5	0.62
8233	61.725	177.23	40.61	13.01	0.24
8234	61.725	181.62	64.97	6.62	0
8235	61.725	174.85	98.35	3.75	0
8236	61.725	153.81	131.61	2.21	0
8237	61.725	125.2	158.59	1.71	0
8238	61.725	93.71	184.87	1.37	0
8239	61.725	62.14	193.79	1.5	1.39
8240	61.725	40.22	195.08	1.49	2.45
8241	61.725	25.86	200.35	1.4	3.01
8242	61.725	17.25	205.41	1.26	3.79
8243	61.725	11.07	204.79	1.25	6.01
8244	61.725	7.48	198.78	1.04	13.24
8245	61.725	5.33	190.32	0.66	26.2
8246	61.725	3.52	178.1	0.67	40.67
8247	61.725	2.76	154.74	0.34	53.54
8248	61.725	1.92	134.82	0	70.22
8249	61.725	1.54	118.38	0	97.58
8250	61.725	1.11	100.01	0	132.25
8251	61.725	0.76	76.89	0	161.92
8252	61.725	0.58	56	0	184.69
8253	61.725	0.42	37.38	0	196.49
8254	61.725	0.15	23.61	2.19	193.58
8255	61.725	0.09	16.01	7.75	187.73
8256	61.725	0	10.44	18.73	180.96
8257	61.725	0	6.75	38.6	165.47
8258	61.725	0	4.62	65.64	142.4
8259	61.725	0	3.08	96.23	114.66
8260	61.725	0	2.27	126.13	85.23
8261	61.725	0	1.89	146.02	59.2
8262	61.725	0	1.58	156.39	44.13
8263	61.725	0	1.28	164.37	32.36
8264	61.725	0	0.93	161.22	22.87
8265	61.725	0.97	0.43	152.78	16.02
8266	61.725	3.41	0.31	136.9	11.52
8267	61.725	8.2	0.2	118.64	8.47
8268	61.725	16.18	0.1	99.22	6.32
8269	61.725	31.1	0.41	75.41	5.36
8270	61.725	45.9	0.56	53.42	4.78
8271	61.725	61.15	0.66	37.97	4.19
8272	61.725	76.98	0.56	26.53	3.67
8273	61.725	90.1	0.63	17.77	3.09
8274	61.725	104.89	0.6	12.22	1.98
8275	61.725	111.21	0.5	8.44	1.1
8276	61.725	114.63	0.31	6.18	0.54
8277	61.725	113.02	0.2	4.48	0.07
8278	61.725	106.44	0.04	2.67	0
8279	61.725	92.09	0.01	1.82	0
8280	61.725	74.43	0	0.87	0
8281	61.725	58.47	0	0.32	0
8282	61.725	42.6	0	0	0
8283	61.725	29.52	0	0	0
8284	61.725	19.94	0	0	0

8227	67.975	132.44	4.49	192.6	0
8228	67.975	129.75	5.41	160.36	0
8229	67.975	126.78	7.36	121.14	0
8230	67.975	126.36	10.44	81.38	0.13
8231	67.975	127.58	14.99	48.07	2.11
8232	67.975	131.02	23.34	26.05	2.49
8233	67.975	139.18	38.04	12.62	1.71
8234	67.975	151.87	65.83	6.21	0.33
8235	67.975	150.11	105.08	3.66	0.24
8236	67.975	130.83	136.67	2.66	0.18
8237	67.975	102.59	161.98	1.99	0.1
8238	67.975	73.14	183.51	1.87	0.44
8239	67.975	49.44	189.21	1.73	3.31
8240	67.975	30.11	192.33	1.85	4.53
8241	67.975	18.38	200.43	1.76	4.35
8242	67.975	10.73	203.13	1.66	4.78
8243	67.975	6.79	198.72	1.59	8.9
8244	67.975	4.38	189.32	1.14	21.93
8245	67.975	2.75	176.69	0.74	36.84
8246	67.975	1.68	152.94	0.33	49.43
8247	67.975	1.14	125.24	0.08	65.88
8248	67.975	0.82	109.19	0.09	83.64
8249	67.975	0.49	94.96	0	108.71
8250	67.975	0.26	75.9	0	135.76
8251	67.975	0.29	55.49	0	161.31
8252	67.975	0.28	36.74	0	178.79
8253	67.975	0	23.54	0.86	175.26
8254	67.975	0	15.88	5.84	165.93
8255	67.975	0	10.56	16.03	164.85
8256	67.975	0	6.75	34.38	153.46
8257	67.975	0	4.6	58.52	134.78
8258	67.975	0	3.08	84.85	110.04
8259	67.975	0	2.21	108.76	87.13
8260	67.975	0	1.87	132.72	61.05
8261	67.975	0	1.63	148.53	45.76
8262	67.975	0	1.37	156.28	33.81
8263	67.975	0	0.86	157.36	25.3
8264	67.975	0	0.4	149.27	17.66
8265	67.975	0.45	0.04	129.47	12.4
8266	67.975	2.63	0	111.86	8.71
8267	67.975	8.07	0	93.15	6.55
8268	67.975	18.66	0	73.68	5.65
8269	67.975	34.04	0.05	53.95	5.49
8270	67.975	51.67	0.2	36.18	4.93
8271	67.975	65.37	0.26	24.66	3.95
8272	67.975	79.57	0.27	16.36	3.25
8273	67.975	91.53	0	10.32	2.31
8274	67.975	102.27	0	6.64	1.63
8275	67.975	110.36	0	4.56	1.1
8276	67.975	110.78	0	2.59	0.17
8277	67.975	104.32	0	1.41	0.56
8278	67.975	92.44	0	0.5	0.15
8279	67.975	77.4	0	0.11	0.24
8280	67.975	58.24	0	0	0
8281	67.975	40.78	0	0	0
8282	67.975	27.65	0.24	0	0
8283	67.975	16.49	2.07	0	0
8284	67.975	10.22	3.39	0	0

$$


$penalty_data.Kr_mutant

4113	10.55	-1	-1	-1	-1
4114	10.55	-1	-1	-1	-1
4115	10.55	-1	-1	-1	-1
4116	10.55	-1	-1	-1	-1
4117	10.55	-1	-1	-1	-1
4118	10.55	-1	-1	-1	-1
4119	10.55	-1	-1	-1	-1
4120	10.55	-1	-1	-1	-1
4121	10.55	-1	-1	-1	-1
4122	10.55	-1	-1	-1	-1
4123	10.55	-1	-1	-1	-1
4124	10.55	-1	-1	-1	-1
4125	10.55	-1	-1	-1	-1
4126	10.55	-1	-1	-1	-1
4127	10.55	-1	-1	-1	-1
4128	10.55	-1	-1	-1	-1
4129	10.55	-1	-1	-1	-1
4130	10.55	-1	-1	-1	-1
4131	10.55	-1	-1	-1	-1
4132	10.55	-1	-1	-1	-1
4133	10.55	-1	-1	-1	-1
4134	10.55	-1	-1	-1	-1
4135	10.55	-1	-1	-1	-1
4136	10.55	-1	-1	-1	-1
4137	10.55	-1	-1	-1	-1
4138	10.55	-1	-1	-1	-1
4139	10.55	-1	-1	-1	-1
4140	10.55	-1	-1	-1	-1
4141	10.55	-1	-1	-1	-1
4142	10.55	-1	-1	-1	-1

8227	24.225	111.14	-1	18.16	5.68
8228	24.225	103.08	-1	15.75	8.44
8229	24.225	103.73	-1	13.02	7.15
8230	24.225	99.75	-1	10.44	8.28
8231	24.225	96.35	-1	7.47	8.02
8232	24.225	82.05	-1	6	8.31
8233	24.225	70.82	-1	4.51	6.73
8234	24.225	68.66	-1	3.62	8.1
8235	24.225	51.27	-1	2.54	9.19
8236	24.225	40.19	-1	2.62	8.4
8237	24.225	32.73	-1	2.26	8.3
8238	24.225	23	-1	1.76	6.4
8239	24.225	16.44	-1	1.91	7.24
8240	24.225	12.34	-1	1.81	6.69
8241	24.225	9.11	-1	1.52	7.25
8242	24.225	8.62	-1	1.58	7.48
8243	24.225	5.21	-1	1.59	7.48
8244	24.225	5.25	-1	1.61	10.49
8245	24.225	4.08	-1	1.53	9.03
8246	24.225	3.32	-1	1.57	12.97
8247	24.225	2.01	-1	2.03	16.62
8248	24.225	2.66	-1	2.68	17.68
8249	24.225	2.76	-1	2.88	20.22
8250	24.225	1.87	-1	3.31	24.13
8251	24.225	2.19	-1	4.03	22.34
8252	24.225	1.91	-1	4.53	24.19
8253	24.225	1.83	-1	5.24	23.87
8254	24.225	1.69	-1	6.05	26.5
8255	24.225	1.98	-1	6.86	23.02
8256	24.225	1.74	-1	7.57	22.62
8257	24.225	1.64	-1	9.17	17.84
8258	24.225	2.1	-1	9.53	18.73
8259	24.225	2.31	-1	10.43	17.69
8260	24.225	2.7	-1	11.4	14.79
8261	24.225	3.05	-1	12.19	14.77
8262	24.225	3.74	-1	12.63	12.63
8263	24.225	3.57	-1	13.46	11.68
8264	24.225	3.61	-1	14.29	9.33
8265	24.225	5.36	-1	14.64	8.59
8266	24.225	4.7	-1	14.46	5.99
8267	24.225	5.84	-1	14.99	8.76
8268	24.225	6.03	-1	14.74	5.71
8269	24.225	7.4	-1	14.65	0
8270	24.225	8.47	-1	13.89	0
8271	24.225	7.95	-1	13.57	0
8272	24.225	8.45	-1	13.29	0
8273	24.225	9.48	-1	11.72	0
8274	24.225	7.53	-1	10.93	0
8275	24.225	8.94	-1	10	0
8276	24.225	8.53	-1	9.02	0
8277	24.225	9.05	-1	7.6	0
8278	24.225	8.8	-1	6.65	0
8279	24.225	8.95	-1	6.02	0
8280	24.225	8.99	-1	5.37	0
8281	24.225	8.16	-1	4.26	0
8282	24.225	7.31	-1	2.7	0
8283	24.225	8.16	-1	2.33	0
8284	24.225	7.78	-1	1.42	0

8227	30.475	128.73	-1	30.85	10.43
8228	30.475	135.8	-1	23.83	7.58
8229	30.475	129.71	-1	18.48	12.55
8230	30.475	113.14	-1	15.9	8.54
8231	30.475	109.38	-1	10.37	9.5
8232	30.475	112.59	-1	6.37	9.45
8233	30.475	90.04	-1	4.47	7.98
8234	30.475	83.19	-1	3.76	11.7
8235	30.475	70.5	-1	3.09	13.88
8236	30.475	56.87	-1	2.72	11.45
8237	30.475	47.01	-1	1.32	8.8
8238	30.475	34.65	-1	1.36	11.34
8239	30.475	22.92	-1	1.1	9.28
8240	30.475	16.91	-1	0.32	14.15
8241	30.475	16.58	-1	0.37	12.37
8242	30.475	11.09	-1	0.58	11.92
8243	30.475	14.39	-1	1.05	17.22
8244	30.475	7.14	-1	1.57	16.11
8245	30.475	9.23	-1	0.22	18.62
8246	30.475	6.99	-1	0.91	20.14
8247	30.475	6.64	-1	2.58	22.51
8248	30.475	6.87	-1	2.91	24.68
8249	30.475	6.6	-1	2.72	27.45
8250	30.475	6.78	-1	3.95	28.15
8251	30.475	7.19	-1	3.85	30.18
8252	30.475	7.55	-1	5.42	35.38
8253	30.475	4.83	-1	7.23	34.96
8254	30.475	4.44	-1	10.12	34.19
8255	30.475	3.97	-1	13.06	31.8
8256	30.475	6.13	-1	13.65	27.07
8257	30.475	5.39	-1	17.43	25.19
8258	30.475	6.23	-1	17.57	18.21
8259	30.475	5.82	-1	19.61	23.05
8260	30.475	6.74	-1	21.4	16
8261	30.475	4.4	-1	23.78	15.59
8262	30.475	4.58	-1	25.43	13.8
8263	30.475	6.28	-1	27.19	13.99
8264	30.475	5.17	-1	27.16	12.32
8265	30.475	6.48	-1	24.54	13.15
8266	30.475	6.96	-1	23.91	12.1
8267	30.475	7.93	-1	21.62	14.99
8268	30.475	8.53	-1	19.61	15.64
8269	30.475	10.21	-1	17.5	0
8270	30.475	11.13	-1	13.27	0
8271	30.475	13.51	-1	11.75	0
8272	30.475	18.12	-1	10.36	0
8273	30.475	12.86	-1	8.65	0
8274	30.475	17.85	-1	7.82	0
8275	30.475	15.62	-1	7.74	0
8276	30.475	16.58	-1	6.69	0
8277	30.475	19.63	-1	4.55	0
8278	30.475	16.94	-1	5.09	0
8279	30.475	16.94	-1	2.29	0
8280	30.475	16.34	-1	0.74	0
8281	30.475	16.02	-1	0	0
8282	30.475	12.35	-1	0	0
8283	30.475	17.21	-1	0	0
8284	30.475	12.3	-1	0	0

8227	36.725	149.34	-1	66.87	3.41
8228	36.725	149.69	-1	48.4	2.56
8229	36.725	146.77	-1	37.67	2.61
8230	36.725	154.52	-1	22.53	2.14
8231	36.725	139.07	-1	16.59	1.38
8232	36.725	128.05	-1	9.57	0.38
8233	36.725	114.41	-1	5.59	1.07
8234	36.725	100.97	-1	3.16	2.38
8235	36.725	90.86	-1	2.92	2.34
8236	36.725	70.37	-1	1.26	3.04
8237	36.725	55	-1	1.37	2.7
8238	36.725	44.86	-1	0.63	3.68
8239	36.725	29.17	-1	0	3.62
8240	36.725	20.8	-1	1.03	2.76
8241	36.725	15.53	-1	0.8	2.03
8242	36.725	13.85	-1	2.73	2.05
8243	36.725	8.19	-1	5.61	1.73
8244	36.725	6.44	-1	6.59	3.5
8245	36.725	5.17	-1	9.76	4.9
8246	36.725	2.98	-1	15.41	7.64
8247	36.725	3.18	-1	19.08	11.81
8248	36.725	2.67	-1	26.97	17.68
8249	36.725	1.46	-1	34.58	21.84
8250	36.725	1.31	-1	40.45	24.11
8251	36.725	1.64	-1	43.84	26.57
8252	36.725	0.8	-1	49.72	26.17
8253	36.725	1.42	-1	56.48	27.09
8254	36.725	0.74	-1	58.24	25.72
8255	36.725	1.11	-1	62.42	24.24
8256	36.725	0.9	-1	64.64	25.29
8257	36.725	1.19	-1	70.16	18.38
8258	36.725	0.82	-1	73.85	15.84
8259	36.725	1.38	-1	73.38	14.01
8260	36.725	0.9	-1	73.87	11.11
8261	36.725	1.61	-1	75.04	9.41
8262	36.725	1.97	-1	69.69	8.77
8263	36.725	2.96	-1	73.49	7.07
8264	36.725	3.16	-1	54.12	5.96
8265	36.725	4.21	-1	49.56	6.38
8266	36.725	7.63	-1	47.78	5.2
8267	36.725	8.86	-1	47.55	3.8
8268	36.725	9.5	-1	32.19	4.29
8269	36.725	11.76	-1	28.68	0
8270	36.725	12.8	-1	20.37	0
8271	36.725	16.23	-1	12.74	0
8272	36.725	20.05	-1	9.9	0
8273	36.725	20.21	-1	9.03	0
8274	36.725	22.44	-1	4.34	0
8275	36.725	22.56	-1	3.34	0
8276	36.725	25.83	-1	1.5	0
8277	36.725	27.19	-1	2.75	0
8278	36.725	22.47	-1	2.24	0
8279	36.725	23.11	-1	2.97	0
8280	36.725	18	-1	2.17	0
8281	36.725	18.09	-1	1.03	0
8282	36.725	14.08	-1	1.8	0
8283	36.725	16.88	-1	0	0
8284	36.725	10.13	-1	0	0

8227	42.975	148.94	-1	97.88	8.41
8228	42.975	146.52	-1	78.18	9.6
8229	42.975	148.67	-1	64.17	8.54
8230	42.975	146.35	-1	42.35	9.19
8231	42.975	143.71	-1	30.67	9.4
8232	42.975	136.11	-1	20.68	9.74
8233	42.975	129.49	-1	16.19	10.01
8234	42.975	129.59	-1	9.88	10.82
8235	42.975	107.44	-1	5.99	9.37
8236	42.975	96.52	-1	5.13	11.89
8237	42.975	79.4	-1	4.12	9.89
8238	42.975	60.07	-1	3.52	10.55
8239	42.975	47.62	-1	2.74	11.5
8240	42.975	33.58	-1	1.72	10.2
8241	42.975	22.72	-1	1.92	11.32
8242	42.975	17.45	-1	1.65	12.76
8243	42.975	11.24	-1	2.45	11.91
8244	42.975	7.87	-1	3.97	13.21
8245	42.975	5.99	-1	7.96	15.45
8246	42.975	6.06	-1	9.78	17.37
8247	42.975	5.51	-1	14.38	21.63
8248	42.975	4.95	-1	20.67	25.26
8249	42.975	4.98	-1	25.61	30.31
8250	42.975	3.27	-1	31.93	35.42
8251	42.975	3.1	-1	35.63	35.58
8252	42.975	2.58	-1	42.99	36.25
8253	42.975	2.93	-1	45.19	35.37
8254	42.975	2.08	-1	54.71	33.16
8255	42.975	2.4	-1	65.04	32.6
8256	42.975	1.84	-1	64.74	28.19
8257	42.975	2.29	-1	67.47	28.18
8258	42.975	2.31	-1	74.03	24.84
8259	42.975	2.9	-1	76.33	24.04
8260	42.975	3.58	-1	77.83	23.07
8261	42.975	4.11	-1	79.48	19.43
8262	42.975	6.05	-1	78.32	19.66
8263	42.975	7	-1	77.67	17.34
8264	42.975	10.5	-1	61.68	17.56
8265	42.975	14.09	-1	59.13	14.64
8266	42.975	17.06	-1	62.51	16.14
8267	42.975	24.58	-1	47.43	13.25
8268	42.975	26.72	-1	44.07	14.56
8269	42.975	33.41	-1	37.11	0
8270	42.975	35.25	-1	28.76	0
8271	42.975	41.24	-1	20.37	0
8272	42.975	43.33	-1	15.14	0
8273	42.975	44.01	-1	10.76	0
8274	42.975	48.61	-1	11.22	0
8275	42.975	44.36	-1	6.74	0
8276	42.975	45.23	-1	4.13	0
8277	42.975	41.7	-1	3.95	0
8278	42.975	35.44	-1	2.65	0
8279	42.975	30.74	-1	2.36	0
8280	42.975	27.06	-1	2.31	0
8281	42.975	21.98	-1	1.02	0
8282	42.975	18.3	-1	1.57	0
8283	42.975	15.07	-1	1.16	0
8284	42.975	14.97	-1	1.92	0

8227	49.225	146.33	-1	115.86	5.6
8228	49.225	148.68	-1	97.37	4.95
8229	49.225	139.12	-1	81.1	5.08
8230	49.225	149.68	-1	59.95	5.38
8231	49.225	135.57	-1	45.8	5.88
8232	49.225	132.15	-1	31.1	8.34
8233	49.225	124.51	-1	21.61	8.01
8234	49.225	118.37	-1	14.28	6.94
8235	49.225	105.35	-1	8.17	7.83
8236	49.225	93.51	-1	5.06	6.54
8237	49.225	83.39	-1	2.91	7.24
8238	49.225	70.78	-1	1.47	7.81
8239	49.225	58.35	-1	1.56	7.63
8240	49.225	44.76	-1	0.4	8.26
8241	49.225	31.69	-1	1.63	7.4
8242	49.225	25.04	-1	2.53	7.49
8243	49.225	17.38	-1	5.15	9.41
8244	49.225	12.61	-1	9.48	9.56
8245	49.225	8.22	-1	15.24	10.45
8246	49.225	6.94	-1	22.93	12.2
8247	49.225	5.11	-1	31.46	16.56
8248	49.225	4.37	-1	40.32	19.79
8249	49.225	3.87	-1	44.8	24.92
8250	49.225	3.85	-1	53.17	26.16
8251	49.225	4.12	-1	58.69	30.6
8252	49.225	3.73	-1	59.93	30.62
8253	49.225	3.15	-1	65.77	30.87
8254	49.225	1.69	-1	69.3	29.77
8255	49.225	3.01	-1	69.9	30.11
8256	49.225	3.87	-1	70.85	29.08
8257	49.225	2.54	-1	69.29	26.38
8258	49.225	4.71	-1	68.31	21.1
8259	49.225	4.85	-1	68.52	19.96
8260	49.225	5.23	-1	63.96	18.62
8261	49.225	6.75	-1	62.63	15.81
8262	49.225	9.71	-1	54.44	13.3
8263	49.225	12.01	-1	49.45	10.76
8264	49.225	15.52	-1	42.97	11.38
8265	49.225	18.84	-1	36.58	9.5
8266	49.225	25.25	-1	30.36	8.65
8267	49.225	30.72	-1	23.16	8.91
8268	49.225	40.03	-1	17.45	8.39
8269	49.225	42.65	-1	12.09	0
8270	49.225	49.62	-1	9.42	0
8271	49.225	54.39	-1	5.5	0
8272	49.225	56.97	-1	4.36	0
8273	49.225	61.89	-1	3.12	0
8274	49.225	60.35	-1	3.38	0
8275	49.225	58.36	-1	0.98	0
8276	49.225	53.92	-1	1.2	0
8277	49.225	51.61	-1	1.05	0
8278	49.225	48.45	-1	0.49	0
8279	49.225	39.46	-1	0.34	0
8280	49.225	34.92	-1	0.14	0
8281	49.225	33	-1	0	0
8282	49.225	25.02	-1	0.4	0
8283	49.225	18.52	-1	0	0
8284	49.225	19.67	-1	0	0

8227	55.475	104.67	-1	121.29	8.77
8228	55.475	107.11	-1	96.08	9.89
8229	55.475	104.72	-1	74.7	11.87
8230	55.475	108.19	-1	53.3	8.47
8231	55.475	104.44	-1	40.78	7.35
8232	55.475	99.4	-1	28.7	7.8
8233	55.475	98.04	-1	19.52	7.86
8234	55.475	91.61	-1	15.19	8.13
8235	55.475	68.1	-1	9.47	9.44
8236	55.475	67.68	-1	6.71	6.87
8237	55.475	55	-1	3.4	11.25
8238	55.475	37.29	-1	1.37	12.15
8239	55.475	29.89	-1	0.82	11.91
8240	55.475	21.61	-1	1.24	10.44
8241	55.475	13.24	-1	1.72	12.65
8242	55.475	9.38	-1	4.71	12.21
8243	55.475	4.5	-1	9.5	14.09
8244	55.475	3.13	-1	15.01	18.3
8245	55.475	3.69	-1	23.5	22.33
8246	55.475	2.95	-1	33.86	21.48
8247	55.475	2.51	-1	40.83	24.86
8248	55.475	2.72	-1	49	25.45
8249	55.475	1.46	-1	56.3	26.71
8250	55.475	1.46	-1	59.8	28.03
8251	55.475	1.57	-1	60.8	27.53
8252	55.475	1.56	-1	64.19	26.76
8253	55.475	1.61	-1	64.02	25.28
8254	55.475	2.6	-1	63.7	23.34
8255	55.475	1.26	-1	63.73	20.13
8256	55.475	0.88	-1	62.12	18.22
8257	55.475	1.91	-1	61.19	17.56
8258	55.475	2.06	-1	60.97	14.57
8259	55.475	2.34	-1	55.25	13.36
8260	55.475	2.7	-1	53.25	13.89
8261	55.475	4.28	-1	42.72	15.08
8262	55.475	4.44	-1	38.07	11.62
8263	55.475	9.2	-1	33.67	11.84
8264	55.475	11.35	-1	26.14	12.17
8265	55.475	16.87	-1	21.48	11.46
8266	55.475	26.22	-1	18.33	11.74
8267	55.475	33.07	-1	14.18	12.26
8268	55.475	38.46	-1	10.86	10.89
8269	55.475	49.43	-1	7.87	0
8270	55.475	51.05	-1	5.74	0
8271	55.475	60.9	-1	3.48	0
8272	55.475	68.35	-1	2.9	0
8273	55.475	63.87	-1	1.65	0
8274	55.475	59.86	-1	0.9	0
8275	55.475	64.42	-1	0.22	0
8276	55.475	46.6	-1	0.79	0
8277	55.475	49.13	-1	1.29	0
8278	55.475	38.71	-1	0.55	0
8279	55.475	27.45	-1	0.8	0
8280	55.475	25.38	-1	1.45	0
8281	55.475	17.97	-1	0.39	0
8282	55.475	13.29	-1	0.33	0
8283	55.475	13.03	-1	0.42	0
8284	55.475	9.86	-1	0.97	0

8227	61.725	87.17	-1	116.69	5.7
8228	61.725	83.47	-1	98.5	4.79
8229	61.725	79.44	-1	69.46	6
8230	61.725	81.87	-1	52.45	5.24
8231	61.725	83.22	-1	38.1	7.33
8232	61.725	81.52	-1	26.47	7.19
8233	61.725	78.65	-1	19.61	5.98
8234	61.725	66.3	-1	14.19	7.03
8235	61.725	59.31	-1	9.24	6.51
8236	61.725	52.09	-1	8.03	7.55
8237	61.725	42.93	-1	5.98	7.77
8238	61.725	33.86	-1	1.81	7.93
8239	61.725	29.05	-1	4	10.26
8240	61.725	22.04	-1	4.44	9.83
8241	61.725	13.47	-1	5.39	7.84
8242	61.725	12.36	-1	8.01	8.05
8243	61.725	7.41	-1	11.03	11.2
8244	61.725	7.27	-1	18.72	13.77
8245	61.725	3.99	-1	24.02	15.03
8246	61.725	3.98	-1	30.92	19.22
8247	61.725	3.11	-1	37.54	19.4
8248	61.725	2.89	-1	43.36	19.34
8249	61.725	2.61	-1	50.74	20.09
8250	61.725	2.16	-1	52.34	21.85
8251	61.725	1.99	-1	55.84	24.4
8252	61.725	2.38	-1	54.29	22.09
8253	61.725	2.68	-1	56.34	23.6
8254	61.725	2.41	-1	56.32	21.32
8255	61.725	2.49	-1	54.25	20.86
8256	61.725	2.33	-1	52.52	18.72
8257	61.725	2.1	-1	44.99	17.7
8258	61.725	3.94	-1	40.2	16.24
8259	61.725	3.84	-1	35.25	14.27
8260	61.725	5.22	-1	29.6	12.39
8261	61.725	8.61	-1	26.02	11.04
8262	61.725	10.38	-1	20.32	10.43
8263	61.725	15.3	-1	18.36	10.75
8264	61.725	20.63	-1	15.78	9.42
8265	61.725	28.99	-1	11.93	7.46
8266	61.725	30.96	-1	9.27	6.82
8267	61.725	41.49	-1	6.3	6.58
8268	61.725	50.75	-1	4.13	5.29
8269	61.725	59.2	-1	3.8	0
8270	61.725	62.44	-1	2.62	0
8271	61.725	67.03	-1	1.13	0
8272	61.725	66.57	-1	0.46	0
8273	61.725	53.99	-1	0.1	0
8274	61.725	58.2	-1	0.71	0
8275	61.725	45.47	-1	0.39	0
8276	61.725	38.75	-1	0	0
8277	61.725	30.19	-1	0.17	0
8278	61.725	23.44	-1	1.01	0
8279	61.725	17.71	-1	2.24	0
8280	61.725	13.02	-1	2.38	0
8281	61.725	9.57	-1	0.95	0
8282	61.725	8.78	-1	1.38	0
8283	61.725	4.5	-1	1.96	0
8284	61.725	4.79	-1	3.08	0

8227	67.975	55.53	-1	83.14	2.24
8228	67.975	56.22	-1	67.13	3.2
8229	67.975	58.74	-1	54.4	1.88
8230	67.975	53.11	-1	36.04	1.58
8231	67.975	62.04	-1	24.56	1.27
8232	67.975	59.65	-1	19.93	3.9
8233	67.975	61.52	-1	14.42	1.72
8234	67.975	53.96	-1	10	1.92
8235	67.975	49.39	-1	6.37	3.11
8236	67.975	42.8	-1	5.78	2.64
8237	67.975	46.69	-1	4.09	4.13
8238	67.975	32.74	-1	2.77	4.57
8239	67.975	34.22	-1	2.54	4.05
8240	67.975	23.66	-1	2.9	4.17
8241	67.975	17.55	-1	2.33	5.15
8242	67.975	10.86	-1	3.2	4.27
8243	67.975	8.39	-1	4.15	5.31
8244	67.975	4.78	-1	7.35	6.86
8245	67.975	3.94	-1	11.23	5.69
8246	67.975	3.91	-1	14.64	7.73
8247	67.975	3.17	-1	17.13	9.37
8248	67.975	3.23	-1	23.4	9.45
8249	67.975	2.54	-1	26.21	12.76
8250	67.975	2.18	-1	28.72	12.28
8251	67.975	3.79	-1	29.09	11.6
8252	67.975	2.86	-1	33.07	11.13
8253	67.975	3.53	-1	31.22	11.61
8254	67.975	3.44	-1	26.14	8.89
8255	67.975	4.77	-1	26.52	9.8
8256	67.975	3.12	-1	24.95	6.29
8257	67.975	4.22	-1	18.7	6.99
8258	67.975	5.54	-1	18.68	6.38
8259	67.975	9.31	-1	16.66	5.59
8260	67.975	11.04	-1	13.55	5.61
8261	67.975	9.77	-1	11.56	6.41
8262	67.975	15.67	-1	9.46	4.59
8263	67.975	19.02	-1	7.88	3.15
8264	67.975	29.17	-1	6.44	5.27
8265	67.975	25.52	-1	4.93	5.49
8266	67.975	31.08	-1	4.85	4.23
8267	67.975	48.44	-1	1.6	2.98
8268	67.975	45.47	-1	0.6	4.39
8269	67.975	41.98	-1	2.02	0
8270	67.975	54.07	-1	0	0
8271	67.975	48.81	-1	1.38	0
8272	67.975	55.99	-1	0.11	0
8273	67.975	59.85	-1	0	0
8274	67.975	56.46	-1	0.39	0
8275	67.975	44.42	-1	0	0
8276	67.975	40.22	-1	0	0
8277	67.975	40.21	-1	0	0
8278	67.975	23.19	-1	0	0
8279	67.975	19.74	-1	0	0
8280	67.975	9.07	-1	0.45	0
8281	67.975	8.46	-1	0	0
8282	67.975	7.58	-1	0.21	0
8283	67.975	5.23	-1	0	0
8284	67.975	5.05	-1	0	0

$$

$external_eight_tab

lin   time   Bcd   Cad   Tll Hkb   Hb   Kr   Gt   Kni

1028	-17.150	45.740	48.790	12.270	-1	22.970	-1	-1	-1
1029	-17.150	24.760	74.950	12.320	-1	17.490	-1	-1	-1
1030	-17.150	14.940	96.290	11.900	-1	10.410	-1	-1	-1
1031	-17.150	8.450	105.550	11.240	-1	3.850	-1	-1	-1
1032	-17.150	4.960	98.830	9.200	-1	1.660	-1	-1	-1
1033	-17.150	2.140	80.270	6.760	-1	0.000	-1	-1	-1
1034	-17.150	1.160	70.180	5.990	-1	0.000	-1	-1	-1
1035	-17.150	1.310	46.740	4.370	-1	0.000	-1	-1	-1
									
2057	-6.200	45.020	53.490	3.350	-1	28.350	6.180	5.380	0.000
2058	-6.200	34.640	72.560	2.830	-1	23.000	6.880	4.550	0.000
2059	-6.200	24.960	86.600	2.240	-1	18.150	6.760	4.090	0.000
2060	-6.200	18.470	99.450	2.070	-1	11.750	6.570	2.900	0.000
2061	-6.200	13.290	113.760	2.960	-1	8.260	5.560	2.660	0.900
2062	-6.200	9.790	124.720	2.440	-1	5.110	4.550	1.550	1.660
2063	-6.200	6.950	124.540	1.930	-1	2.740	3.960	2.210	1.680
2064	-6.200	4.630	129.930	0.750	-1	1.330	3.430	2.500	0.720
2065	-6.200	3.060	126.010	1.600	-1	0.900	2.420	0.500	2.090
2066	-6.200	1.630	122.430	0.000	-1	0.440	1.670	1.480	0.590
2067	-6.200	1.160	116.320	0.000	-1	0.000	1.500	1.140	1.230
2068	-6.200	0.830	113.150	0.370	-1	0.000	0.060	3.320	1.120
2069	-6.200	0.000	102.740	0.000	-1	0.000	0.000	4.150	0.900
2070	-6.200	0.000	98.900	0.540	-1	0.090	0.320	5.330	2.290
2071	-6.200	0.580	84.620	1.820	-1	0.450	0.380	8.800	0.840
									
4113	0.000	53.288	28.909	3.767	0.000	49.822	0.000	0.000	0.000
4114	0.000	43.820	36.335	3.741	0.000	45.991	0.000	0.000	0.000
4115	0.000	40.539	40.020	4.132	0.000	43.974	0.000	0.000	0.000
4116	0.000	34.109	51.887	3.289	0.000	38.058	0.000	0.000	0.000
4117	0.000	31.793	55.963	3.586	0.000	35.644	0.000	0.000	0.000
4118	0.000	25.907	65.176	3.172	0.000	29.269	0.000	0.000	0.000
4119	0.000	23.850	68.331	3.373	0.000	26.156	0.000	0.000	0.000
4120	0.000	19.519	78.055	3.449	0.000	18.742	0.000	0.000	0.000
4121	0.000	17.923	82.207	2.787	0.000	15.996	0.000	0.000	0.000
4122	0.000	14.418	90.889	2.921	0.000	11.536	0.000	0.000	0.000
4123	0.000	13.156	93.318	3.375	0.000	10.148	0.000	0.000	0.000
4124	0.000	10.817	100.519	2.880	0.000	6.916	0.000	0.000	0.000
4125	0.000	9.808	102.393	2.785	0.000	5.898	0.000	0.000	0.000
4126	0.000	7.922	104.755	2.394	0.000	3.691	0.000	0.000	0.000
4127	0.000	7.120	105.481	1.088	0.000	3.143	0.000	0.000	0.000
4128	0.000	5.642	107.795	0.922	0.000	1.856	0.000	0.000	0.000
4129	0.000	4.935	109.877	0.846	0.000	1.552	0.000	0.000	0.000
4130	0.000	3.659	106.657	0.921	0.000	1.022	0.000	0.000	0.000
4131	0.000	3.173	107.332	1.054	0.000	0.863	0.000	0.000	0.000
4132	0.000	2.182	105.317	0.480	0.000	0.410	0.000	0.000	0.000
4133	0.000	1.747	103.493	0.082	0.000	0.277	0.000	0.000	0.000
4134	0.000	1.269	101.391	0.902	0.000	0.000	0.000	0.000	0.000
4135	0.000	1.023	102.224	1.249	0.000	0.000	0.000	0.000	0.000
4136	0.000	0.541	99.755	2.415	0.000	0.000	0.000	0.000	0.000
4137	0.000	0.358	101.162	3.664	0.000	0.000	0.000	0.000	0.000
4138	0.000	0.000	95.719	5.010	0.000	0.000	0.000	0.000	0.000
4139	0.000	0.000	95.965	7.755	0.000	0.000	0.000	0.000	0.000
4140	0.000	0.170	94.484	10.416	0.000	0.057	0.000	0.000	0.000
4141	0.000	0.328	93.878	13.009	0.000	0.057	0.000	0.000	0.000
4142	0.000	0.455	84.961	13.585	0.000	0.283	0.000	0.000	0.000
									
4113	10.550	48.640	22.850	3.460	-1	80.130	4.750	20.290	1.420
4114	10.550	42.990	26.150	3.960	-1	76.010	6.460	17.920	1.780
4115	10.550	37.790	31.990	4.580	-1	70.560	8.310	14.700	0.000
4116	10.550	33.700	39.590	3.550	-1	63.680	10.490	10.940	1.310
4117	10.550	30.030	46.050	4.020	-1	57.160	13.130	7.100	2.150
4118	10.550	26.390	52.400	3.710	-1	48.190	16.100	4.800	1.710
4119	10.550	23.130	57.400	4.030	-1	39.780	19.230	3.940	1.790
4120	10.550	20.080	65.260	4.250	-1	30.640	22.330	3.250	2.550
4121	10.550	17.550	71.840	3.200	-1	23.220	23.800	2.840	5.130
4122	10.550	15.040	77.190	2.890	-1	17.110	25.090	3.090	6.910
4123	10.550	13.040	81.040	3.610	-1	13.360	25.800	3.290	10.910
4124	10.550	11.390	86.010	3.130	-1	9.990	24.110	3.540	15.620
4125	10.550	9.790	88.980	2.980	-1	7.240	21.560	3.100	24.340
4126	10.550	8.470	92.830	2.660	-1	5.310	18.890	3.460	33.330
4127	10.550	7.200	93.980	0.590	-1	3.830	14.840	4.080	42.460
4128	10.550	6.220	94.480	1.020	-1	2.750	12.050	4.410	49.620
4129	10.550	5.100	97.780	0.900	-1	1.930	10.120	5.880	47.930
4130	10.550	4.000	94.980	0.520	-1	1.230	7.080	7.930	45.960
4131	10.550	3.230	96.050	0.730	-1	0.800	5.020	7.840	46.140
4132	10.550	2.500	94.960	0.760	-1	0.360	3.620	10.000	36.440
4133	10.550	1.810	92.070	0.130	-1	0.000	2.000	9.940	29.840
4134	10.550	1.330	92.330	1.430	-1	0.000	1.190	12.670	21.270
4135	10.550	0.940	93.650	1.980	-1	0.000	0.620	15.490	17.160
4136	10.550	0.370	91.600	3.610	-1	0.000	0.000	17.050	10.750
4137	10.550	0.080	93.830	5.590	-1	0.000	0.000	16.910	9.760
4138	10.550	0.000	91.320	7.940	-1	0.000	0.000	17.440	9.280
4139	10.550	0.000	91.710	12.290	-1	0.000	0.000	18.940	11.020
4140	10.550	0.270	91.620	16.190	-1	0.000	0.040	18.210	12.300
4141	10.550	0.520	90.660	20.300	-1	0.000	0.740	18.140	10.940
4142	10.550	0.380	84.920	20.460	-1	0.000	0.860	17.480	9.660
									
8227	24.225	52.620	31.230	1.180	3.790	136.580	9.560	55.800	0.250
8228	24.225	48.610	33.880	1.370	3.830	132.550	12.150	48.680	0.000
8229	24.225	45.440	36.170	0.600	3.880	127.890	14.320	41.440	0.000
8230	24.225	42.940	39.440	0.940	3.880	123.350	17.720	34.720	0.000
8231	24.225	40.160	44.950	1.820	3.570	119.450	21.850	26.650	0.080
8232	24.225	38.070	47.640	0.970	3.640	112.310	27.240	21.230	0.230
8233	24.225	35.630	47.270	1.190	4.030	104.020	32.770	15.060	0.000
8234	24.225	33.210	54.980	1.060	3.720	95.340	39.420	11.020	0.190
8235	24.225	31.130	58.920	1.330	3.230	86.090	46.490	7.750	0.000
8236	24.225	29.130	64.780	1.790	4.640	75.350	54.600	5.060	0.270
8237	24.225	26.950	66.310	1.180	4.320	64.480	62.140	3.610	0.140
8238	24.225	25.300	70.470	0.710	4.140	54.310	67.990	2.900	0.100
8239	24.225	23.610	73.770	1.400	4.190	45.230	75.300	2.100	0.270
8240	24.225	21.920	77.090	0.970	4.750	36.120	81.640	1.340	0.820
8241	24.225	20.380	82.330	0.730	4.200	28.340	86.810	0.940	2.040
8242	24.225	18.960	85.470	0.830	4.030	22.030	92.030	0.800	2.010
8243	24.225	17.560	88.180	1.120	4.360	17.230	94.530	0.370	3.190
8244	24.225	16.050	91.450	1.510	5.000	13.250	95.090	0.550	4.740
8245	24.225	14.800	95.770	1.120	4.970	10.380	96.970	0.460	8.470
8246	24.225	13.500	98.130	1.370	4.720	7.890	96.210	0.300	9.740
8247	24.225	12.360	99.700	1.880	4.920	5.940	95.290	0.020	14.470
8248	24.225	11.430	104.400	1.300	4.830	4.660	91.390	0.000	20.240
8249	24.225	10.510	105.380	1.100	4.760	3.450	87.120	0.000	27.410
8250	24.225	9.950	108.050	0.780	5.220	2.600	80.540	0.000	35.420
8251	24.225	9.050	110.670	1.310	5.170	1.780	72.980	0.000	43.340
8252	24.225	8.110	112.240	0.380	5.200	1.180	64.820	0.010	52.900
8253	24.225	7.470	113.770	0.750	4.880	0.720	55.850	0.330	60.340
8254	24.225	6.960	116.690	0.920	4.260	0.280	47.650	0.920	65.790
8255	24.225	6.060	115.990	0.950	5.640	0.000	38.910	1.700	72.820
8256	24.225	5.390	116.710	0.440	4.450	0.000	31.460	3.410	74.570
8257	24.225	5.030	117.350	0.810	4.380	0.000	24.400	4.970	75.590
8258	24.225	4.540	118.080	0.550	3.960	0.000	18.830	7.100	75.470
8259	24.225	3.960	118.440	0.740	4.540	0.000	15.050	10.140	74.890
8260	24.225	3.570	120.330	0.590	3.940	0.000	11.560	14.780	72.440
8261	24.225	3.170	119.000	1.070	3.970	0.000	9.110	17.990	67.300
8262	24.225	2.700	119.430	1.370	3.840	0.000	7.140	22.630	61.570
8263	24.225	2.480	120.050	0.960	3.260	0.000	5.670	29.460	55.640
8264	24.225	2.030	118.600	1.070	3.960	0.000	4.280	33.530	49.270
8265	24.225	1.890	119.910	1.670	2.780	0.000	3.300	39.870	41.110
8266	24.225	1.550	120.340	1.720	3.130	0.000	2.270	45.640	33.590
8267	24.225	1.310	119.150	3.680	3.160	0.000	1.910	51.320	27.660
8268	24.225	0.950	115.780	4.480	2.670	0.000	1.490	55.860	22.220
8269	24.225	0.830	117.800	5.990	3.020	0.000	1.120	59.330	16.940
8270	24.225	0.520	115.540	7.440	3.210	0.000	0.620	61.940	12.620
8271	24.225	0.330	114.560	9.420	2.550	0.000	0.600	63.250	10.380
8272	24.225	0.340	115.950	12.050	3.050	0.000	0.350	65.710	7.100
8273	24.225	0.000	113.890	14.370	3.340	0.170	0.000	64.040	5.810
8274	24.225	0.000	111.970	19.410	3.720	0.410	0.000	63.030	4.270
8275	24.225	0.000	112.900	24.700	3.820	0.910	0.000	60.550	3.050
8276	24.225	0.000	110.720	30.570	4.880	1.460	0.000	56.280	2.550
8277	24.225	0.030	113.470	36.180	5.510	1.840	0.000	52.030	1.760
8278	24.225	0.090	110.240	42.380	6.480	2.350	0.000	48.480	1.350
8279	24.225	0.330	110.410	48.220	8.260	2.830	0.120	44.330	1.440
8280	24.225	0.510	108.200	56.150	10.050	3.460	0.090	40.900	1.220
8281	24.225	0.700	107.820	61.710	11.320	4.040	0.360	37.600	0.760
8282	24.225	0.720	105.200	67.880	13.050	4.500	0.500	33.770	0.760
8283	24.225	1.010	103.470	73.750	16.290	4.960	0.440	29.990	0.700
8284	24.225	1.010	99.090	73.730	18.820	5.210	0.520	26.610	0.010
									
8227	30.475	43.980	28.360	0.310	5.180	164.380	9.220	92.640	0.070
8228	30.475	41.300	30.510	0.900	4.890	161.420	12.170	79.730	0.000
8229	30.475	38.990	32.800	1.290	5.210	158.630	15.630	64.960	0.080
8230	30.475	36.120	35.950	0.410	5.320	152.640	19.990	50.620	0.000
8231	30.475	34.190	39.170	1.200	5.330	148.280	26.480	37.380	0.160
8232	30.475	31.870	43.380	0.000	5.670	140.580	33.590	26.110	0.800
8233	30.475	29.800	49.350	0.100	5.870	130.040	42.400	18.100	0.490
8234	30.475	27.400	50.670	0.880	5.360	118.000	53.500	12.610	0.970
8235	30.475	25.530	55.010	0.150	5.140	102.680	65.470	8.690	1.100
8236	30.475	24.180	58.610	0.620	5.080	86.950	79.860	6.480	1.280
8237	30.475	22.330	63.210	0.980	5.400	72.370	92.790	4.610	1.500
8238	30.475	20.490	67.140	0.680	5.390	56.200	104.830	3.580	1.150
8239	30.475	18.830	72.470	0.360	6.250	43.280	115.040	2.840	1.740
8240	30.475	17.510	74.310	0.680	5.640	32.230	124.760	1.970	2.310
8241	30.475	16.080	78.870	0.650	5.340	24.170	131.110	1.650	2.450
8242	30.475	14.710	82.440	0.230	5.380	18.250	133.270	1.240	3.400
8243	30.475	13.680	85.790	1.430	5.310	13.750	136.410	0.770	4.530
8244	30.475	12.300	87.190	0.750	5.740	10.360	137.160	0.600	5.910
8245	30.475	11.380	92.650	1.360	5.870	7.640	135.860	0.750	9.420
8246	30.475	10.590	94.680	0.870	5.920	5.780	131.790	0.760	13.700
8247	30.475	9.560	97.880	1.510	5.690	4.500	125.500	0.370	20.550
8248	30.475	8.680	101.170	1.610	5.830	3.400	117.620	0.000	29.560
8249	30.475	8.120	102.530	0.770	6.350	2.360	108.620	0.090	41.410
8250	30.475	7.370	104.280	0.620	5.110	1.660	98.440	0.000	54.070
8251	30.475	6.620	108.130	0.470	5.390	1.150	83.940	0.000	68.820
8252	30.475	6.080	108.990	0.570	5.410	0.770	70.440	0.000	83.700
8253	30.475	5.380	113.220	1.220	5.210	0.430	57.430	0.000	97.760
8254	30.475	4.710	113.300	0.540	5.260	0.020	45.440	0.230	109.540
8255	30.475	4.600	115.040	1.130	5.660	0.000	35.240	1.190	116.130
8256	30.475	3.850	114.480	0.410	5.710	0.000	26.740	2.590	120.800
8257	30.475	3.500	118.200	0.230	5.370	0.000	20.390	5.320	121.370
8258	30.475	2.930	117.500	0.000	5.100	0.000	14.690	9.140	119.050
8259	30.475	2.530	119.300	0.310	4.720	0.000	10.900	14.190	114.270
8260	30.475	2.400	121.480	0.170	4.120	0.000	7.850	21.160	106.430
8261	30.475	2.070	122.080	0.000	4.150	0.000	5.780	30.690	95.840
8262	30.475	1.770	122.580	0.120	3.740	0.000	4.090	39.670	82.020
8263	30.475	1.410	122.110	0.000	3.660	0.000	2.710	48.480	70.770
8264	30.475	1.150	124.420	0.230	4.040	0.000	2.020	57.460	58.570
8265	30.475	1.010	124.000	0.420	3.810	0.000	1.440	65.280	46.430
8266	30.475	0.710	125.540	0.890	4.110	0.000	0.710	71.630	35.760
8267	30.475	0.670	122.990	0.730	3.570	0.000	0.450	76.750	29.180
8268	30.475	0.300	123.750	1.820	3.420	0.000	0.220	79.080	23.030
8269	30.475	0.240	124.850	2.340	4.240	0.000	0.160	80.410	17.190
8270	30.475	0.260	124.410	5.010	3.830	0.000	0.000	78.170	14.270
8271	30.475	0.000	126.300	8.030	4.270	0.590	0.000	74.450	10.500
8272	30.475	0.020	126.170	11.960	4.570	1.450	0.000	69.570	8.810
8273	30.475	0.000	126.440	18.040	5.010	2.320	0.000	63.310	7.220
8274	30.475	0.000	126.500	26.430	5.360	3.890	0.000	56.670	6.120
8275	30.475	0.080	125.460	35.510	6.990	5.220	0.000	49.520	5.200
8276	30.475	0.120	126.920	51.230	7.950	6.590	0.030	44.100	4.170
8277	30.475	0.370	123.320	65.270	10.140	7.720	0.050	38.340	3.320
8278	30.475	0.280	124.990	76.760	12.480	8.630	0.090	33.270	3.020
8279	30.475	0.590	124.700	90.140	14.520	9.400	0.000	28.130	2.760
8280	30.475	0.740	125.190	99.750	17.430	9.450	0.000	24.310	1.970
8281	30.475	0.770	124.170	102.420	18.670	10.180	0.070	19.900	1.750
8282	30.475	0.790	119.060	107.010	16.630	10.020	0.070	16.650	1.440
8283	30.475	0.770	116.030	110.830	20.410	9.530	0.220	13.800	0.900
8284	30.475	0.760	113.220	116.830	21.590	9.820	0.340	11.140	0.730
									
8227	36.725	41.660	21.550	0.970	3.780	193.790	5.180	137.350	0.000
8228	36.725	39.070	25.300	1.430	5.060	190.730	6.960	119.990	0.000
8229	36.725	37.650	28.060	0.840	4.100	188.050	9.000	98.370	0.000
8230	36.725	35.800	33.520	0.000	5.180	184.310	11.540	75.020	0.000
8231	36.725	33.320	35.900	0.030	5.260	179.980	15.680	53.780	0.000
8232	36.725	31.790	38.570	0.000	5.310	173.380	22.040	35.840	0.000
8233	36.725	29.290	41.400	0.100	5.870	166.030	31.750	23.550	0.000
8234	36.725	27.820	48.590	0.000	5.590	154.490	43.540	15.690	0.000
8235	36.725	25.920	47.870	0.000	5.270	139.200	59.590	10.280	0.000
8236	36.725	24.740	52.420	0.480	5.890	120.090	78.350	6.330	0.000
8237	36.725	23.450	55.790	0.020	5.540	96.920	100.320	4.470	0.000
8238	36.725	21.480	60.380	0.000	5.650	75.630	118.810	3.100	0.000
8239	36.725	19.760	64.660	0.190	5.400	56.390	134.890	2.000	0.000
8240	36.725	19.020	66.530	0.240	6.320	40.120	148.220	1.650	0.000
8241	36.725	17.070	68.420	0.950	5.190	29.130	155.990	1.190	0.410
8242	36.725	16.600	71.900	0.630	5.730	21.180	159.660	0.760	1.570
8243	36.725	15.180	76.660	0.990	5.970	15.480	162.070	0.560	3.160
8244	36.725	14.170	78.880	0.150	5.530	10.830	162.450	0.330	5.270
8245	36.725	13.200	81.340	1.090	5.690	7.620	161.490	0.220	8.680
8246	36.725	11.850	84.170	1.310	5.930	5.730	157.900	0.070	14.800
8247	36.725	11.230	87.000	0.650	6.040	3.830	152.670	0.000	24.280
8248	36.725	10.070	90.240	1.290	6.340	2.790	144.470	0.000	37.820
8249	36.725	9.130	90.940	0.820	6.050	1.990	132.680	0.000	53.630
8250	36.725	7.850	93.030	0.000	6.240	1.220	116.720	0.000	74.130
8251	36.725	7.220	94.850	0.000	5.770	0.700	97.610	0.000	95.890
8252	36.725	6.660	95.840	0.000	6.230	0.240	78.430	0.000	117.020
8253	36.725	5.570	98.250	0.000	5.570	0.110	58.990	0.000	136.130
8254	36.725	5.130	98.050	0.130	5.400	0.000	43.050	0.000	149.680
8255	36.725	4.710	98.050	0.000	5.470	0.000	30.490	1.330	157.060
8256	36.725	3.750	97.930	0.310	5.350	0.000	21.050	4.300	159.200
8257	36.725	3.310	100.710	0.000	5.210	0.000	14.980	10.480	156.380
8258	36.725	2.920	99.610	0.000	5.600	0.000	10.310	19.020	149.960
8259	36.725	2.490	101.980	0.000	4.850	0.000	7.220	31.200	136.460
8260	36.725	2.430	102.990	0.000	4.750	0.000	5.230	45.340	118.340
8261	36.725	1.940	105.310	0.000	5.010	0.000	3.790	61.300	99.360
8262	36.725	1.670	104.610	0.860	4.400	0.000	2.750	75.710	81.610
8263	36.725	1.380	105.580	0.000	4.620	0.000	1.920	90.020	62.850
8264	36.725	1.340	106.040	0.810	4.440	0.000	1.360	100.380	48.550
8265	36.725	1.330	109.840	1.170	3.710	0.000	0.980	106.630	37.760
8266	36.725	1.110	109.250	1.740	4.110	0.000	0.570	110.610	29.010
8267	36.725	0.820	111.960	3.170	3.870	0.000	0.340	109.130	21.740
8268	36.725	0.450	112.600	4.520	4.260	0.420	0.270	105.780	16.240
8269	36.725	0.920	112.690	5.790	3.420	1.930	0.210	98.740	11.820
8270	36.725	0.340	111.320	8.370	3.640	4.250	0.080	88.700	9.010
8271	36.725	1.330	114.170	11.870	4.210	6.790	0.070	78.710	6.690
8272	36.725	0.700	114.110	17.340	3.920	10.620	0.130	69.420	5.400
8273	36.725	0.580	114.200	24.090	4.040	14.190	0.290	59.270	4.440
8274	36.725	0.640	113.860	34.180	4.750	17.360	0.270	50.820	3.800
8275	36.725	0.360	113.140	46.590	5.460	20.070	0.300	42.260	3.080
8276	36.725	0.870	110.630	67.260	6.240	22.890	0.370	35.340	2.460
8277	36.725	0.860	114.080	83.690	7.250	24.230	0.290	28.920	2.060
8278	36.725	0.700	108.600	105.820	9.060	24.700	0.280	24.220	1.630
8279	36.725	1.360	110.890	118.610	10.650	24.380	0.150	19.020	1.600
8280	36.725	1.130	103.060	130.650	13.450	23.380	0.220	15.150	1.440
8281	36.725	1.340	97.700	138.590	19.240	21.710	0.050	12.240	1.400
8282	36.725	1.330	91.200	142.020	23.940	19.830	0.020	8.600	1.170
8283	36.725	1.110	84.730	151.330	30.270	17.500	0.000	5.790	0.690
8284	36.725	0.600	78.560	141.650	31.940	14.770	0.000	3.690	0.480
									
8227	42.975	39.800	22.540	0.330	4.750	201.480	5.060	176.190	0.000
8228	42.975	37.140	24.930	0.620	4.730	201.180	6.090	159.440	0.000
8229	42.975	34.330	28.120	0.000	4.750	199.620	7.890	131.700	0.000
8230	42.975	33.520	31.730	0.550	4.730	199.760	10.790	100.070	0.000
8231	42.975	31.370	33.780	0.000	4.650	199.080	15.030	68.150	0.260
8232	42.975	29.450	35.160	0.000	4.950	197.370	21.130	42.460	0.440
8233	42.975	27.130	39.110	0.000	5.580	194.520	31.740	23.750	1.550
8234	42.975	25.610	43.130	0.000	4.970	185.340	46.520	13.940	1.380
8235	42.975	24.090	46.870	0.060	4.950	172.920	67.560	7.810	1.160
8236	42.975	22.570	50.690	0.370	5.290	155.090	92.090	4.940	1.540
8237	42.975	21.200	53.130	0.030	4.890	129.310	120.580	2.970	1.060
8238	42.975	19.510	56.090	0.000	4.920	103.120	147.020	2.010	0.930
8239	42.975	18.510	60.710	0.340	5.190	78.350	165.820	1.560	1.470
8240	42.975	17.410	64.270	0.320	4.400	54.030	178.120	1.250	2.040
8241	42.975	16.490	66.970	0.000	4.220	36.370	185.180	1.220	3.610
8242	42.975	14.500	68.850	0.000	4.720	24.880	190.170	0.770	4.610
8243	42.975	13.540	69.510	0.000	4.990	16.930	192.560	0.390	6.020
8244	42.975	12.010	69.950	0.250	4.770	11.360	194.160	0.310	8.150
8245	42.975	10.840	72.730	0.000	4.960	7.860	192.410	0.130	12.520
8246	42.975	10.060	72.580	0.610	5.420	5.600	190.270	0.000	19.240
8247	42.975	9.420	78.160	1.240	5.520	3.650	185.020	0.000	30.500
8248	42.975	8.210	77.860	0.000	5.060	2.520	175.760	0.000	45.970
8249	42.975	7.160	78.650	0.050	5.340	1.600	162.510	0.000	64.870
8250	42.975	6.830	79.620	0.000	5.980	0.970	144.950	0.000	92.430
8251	42.975	5.790	82.890	0.280	5.280	0.430	122.300	0.000	123.410
8252	42.975	5.540	87.710	0.520	6.470	0.140	96.920	0.000	149.660
8253	42.975	5.000	86.810	1.070	5.570	0.000	71.450	0.000	171.480
8254	42.975	4.280	86.290	0.500	5.230	0.000	49.750	0.000	185.620
8255	42.975	3.310	86.500	0.190	4.980	0.000	33.490	0.030	192.350
8256	42.975	2.980	88.010	0.000	4.860	0.000	22.690	3.170	193.720
8257	42.975	2.840	87.510	0.000	5.240	0.000	15.500	9.670	186.770
8258	42.975	2.070	88.760	0.000	4.590	0.000	10.890	20.380	175.700
8259	42.975	2.380	90.060	0.220	4.890	0.000	7.670	38.280	158.920
8260	42.975	1.700	91.370	0.270	4.190	0.000	5.550	61.260	137.310
8261	42.975	1.340	91.770	1.190	3.610	0.000	3.970	88.210	112.660
8262	42.975	1.110	93.260	0.720	3.500	0.000	2.810	111.380	87.190
8263	42.975	1.120	94.060	1.240	4.060	0.000	2.240	129.750	67.550
8264	42.975	0.910	93.580	1.650	3.910	0.000	1.930	141.000	51.310
8265	42.975	0.580	94.930	2.120	3.530	0.000	1.460	148.070	38.960
8266	42.975	0.460	97.090	1.580	3.570	0.000	1.230	152.340	29.150
8267	42.975	0.260	97.800	2.570	3.670	0.370	0.910	151.330	22.410
8268	42.975	0.310	97.020	3.540	3.860	3.050	0.740	143.830	17.030
8269	42.975	0.240	99.270	6.000	3.310	6.620	0.630	132.180	13.110
8270	42.975	0.000	100.940	8.090	3.180	11.560	0.640	116.440	9.820
8271	42.975	0.400	102.460	11.510	3.340	18.660	0.660	97.220	8.220
8272	42.975	0.340	103.390	13.450	3.060	25.560	0.730	77.420	7.000
8273	42.975	0.250	102.420	19.190	3.100	32.680	0.730	60.980	6.370
8274	42.975	0.050	102.930	25.600	4.050	40.370	0.690	46.910	5.530
8275	42.975	0.150	103.460	33.960	4.640	45.920	0.790	37.930	5.270
8276	42.975	0.550	102.810	49.140	4.970	50.420	0.760	29.270	4.750
8277	42.975	0.870	100.520	64.890	5.370	52.850	0.710	23.470	4.110
8278	42.975	0.520	102.120	88.050	7.000	54.110	0.530	18.760	3.310
8279	42.975	0.870	101.280	106.280	8.810	52.830	0.440	14.840	2.780
8280	42.975	0.610	98.310	123.370	11.940	48.380	0.370	11.220	2.110
8281	42.975	0.730	93.070	140.360	15.870	43.860	0.140	8.450	1.920
8282	42.975	0.940	89.960	145.520	21.590	37.760	0.090	5.720	1.130
8283	42.975	0.650	86.150	145.780	23.160	30.750	0.000	3.650	0.890
8284	42.975	0.770	81.440	152.310	25.690	25.570	0.000	2.300	0.500
									
8227	49.225	40.210	16.340	0.790	4.960	193.060	4.050	189.530	0.000
8228	49.225	38.000	18.810	0.470	5.150	191.900	5.530	168.020	0.000
8229	49.225	35.880	22.710	0.550	5.540	192.190	7.640	136.050	0.000
8230	49.225	34.190	24.460	0.660	5.730	193.340	11.030	98.320	0.000
8231	49.225	31.920	26.910	0.340	5.380	192.710	16.770	60.650	0.000
8232	49.225	30.770	32.060	1.360	5.690	192.300	24.810	33.690	0.140
8233	49.225	29.970	34.480	0.470	5.650	189.450	37.810	17.730	0.300
8234	49.225	27.360	37.190	0.280	5.960	182.540	56.580	9.120	0.320
8235	49.225	26.620	40.760	0.420	6.040	169.050	83.080	5.250	0.070
8236	49.225	24.370	45.130	0.270	5.850	149.000	118.080	3.340	0.000
8237	49.225	22.900	49.500	0.010	6.290	121.560	149.210	2.300	0.000
8238	49.225	20.770	51.590	0.000	6.020	93.580	171.900	1.900	0.000
8239	49.225	19.240	54.100	0.000	5.840	65.430	187.830	1.750	0.490
8240	49.225	18.640	53.800	0.000	5.520	42.330	195.350	1.720	1.630
8241	49.225	17.550	57.710	0.300	6.590	28.330	198.660	1.460	2.710
8242	49.225	16.500	58.250	0.310	6.360	18.480	203.180	1.460	3.170
8243	49.225	14.990	61.820	0.010	6.090	12.570	205.910	1.230	4.860
8244	49.225	14.090	62.580	0.250	6.950	8.560	205.120	1.060	8.340
8245	49.225	12.800	65.190	1.290	6.620	5.940	202.570	0.810	16.030
8246	49.225	11.720	68.170	0.160	6.700	3.760	197.990	0.670	27.710
8247	49.225	10.890	69.290	0.000	6.310	2.400	189.880	0.490	42.620
8248	49.225	9.820	66.880	0.160	6.770	1.470	176.290	0.090	62.490
8249	49.225	9.290	72.280	0.890	5.900	0.850	159.830	0.000	86.880
8250	49.225	8.510	73.160	0.240	6.150	0.430	139.810	0.000	122.690
8251	49.225	7.960	73.960	0.110	6.290	0.120	112.800	0.000	157.310
8252	49.225	6.740	76.560	0.840	5.910	0.000	83.740	0.000	181.910
8253	49.225	6.310	75.290	0.540	6.120	0.000	59.250	0.000	198.100
8254	49.225	4.990	76.840	0.160	5.920	0.000	40.230	0.000	204.160
8255	49.225	5.080	77.040	0.350	5.750	0.000	25.720	1.160	207.460
8256	49.225	4.720	77.300	0.000	5.800	0.000	17.420	5.640	204.180
8257	49.225	4.040	78.980	0.380	6.080	0.000	11.630	15.540	196.550
8258	49.225	3.810	79.510	0.010	4.810	0.000	7.660	33.770	180.970
8259	49.225	2.780	80.000	0.050	5.570	0.000	5.250	60.780	156.840
8260	49.225	3.010	81.810	0.630	4.770	0.000	3.620	92.240	124.870
8261	49.225	2.460	80.870	0.080	4.220	0.000	2.480	122.450	95.040
8262	49.225	2.210	83.220	0.270	5.130	0.000	1.810	142.680	69.170
8263	49.225	2.400	82.530	0.170	4.580	0.000	1.600	157.460	50.290
8264	49.225	1.590	82.410	0.270	4.300	0.000	1.050	165.870	36.810
8265	49.225	1.550	87.370	0.000	3.830	0.000	0.870	168.340	27.760
8266	49.225	1.630	89.360	0.960	4.700	0.580	0.480	166.220	20.050
8267	49.225	1.440	91.690	1.430	4.080	3.040	0.220	156.810	15.370
8268	49.225	0.910	93.270	2.400	3.690	7.130	0.190	141.590	12.160
8269	49.225	1.020	95.630	2.940	3.850	13.830	0.110	122.270	9.600
8270	49.225	0.830	94.690	3.220	3.620	21.790	0.250	98.000	7.650
8271	49.225	0.780	96.440	5.220	3.760	31.500	0.270	75.640	6.370
8272	49.225	1.620	97.720	6.750	3.920	40.860	0.450	55.000	5.760
8273	49.225	0.730	96.620	10.680	3.890	50.070	0.510	40.160	5.110
8274	49.225	1.650	100.130	15.930	4.870	57.060	0.650	30.550	4.380
8275	49.225	1.660	101.680	21.400	4.920	63.390	0.640	23.010	3.700
8276	49.225	1.460	100.100	29.620	5.930	68.690	0.720	18.140	2.940
8277	49.225	1.460	99.380	41.550	6.970	71.720	0.650	14.400	2.460
8278	49.225	0.760	97.470	55.360	8.470	70.610	0.590	11.610	1.850
8279	49.225	1.260	93.730	71.800	10.210	68.010	0.430	8.780	1.330
8280	49.225	0.820	85.260	87.950	13.450	62.270	0.310	6.610	0.650
8281	49.225	0.400	77.880	103.180	18.070	54.620	0.160	5.170	0.320
8282	49.225	0.590	70.760	113.150	24.090	46.200	0.000	3.550	0.160
8283	49.225	1.300	69.120	125.050	29.000	37.000	0.000	1.980	0.000
8284	49.225	1.110	62.070	146.220	35.980	29.100	0.000	0.640	0.000
									
8227	55.475	36.680	20.420	1.140	5.320	185.350	4.090	186.170	0.000
8228	55.475	34.120	22.930	1.160	4.870	182.050	5.610	163.180	0.000
8229	55.475	32.600	23.280	1.620	5.490	184.410	8.280	127.660	0.000
8230	55.475	30.510	23.860	1.310	5.300	184.760	11.980	92.730	0.000
8231	55.475	27.630	28.420	1.510	5.320	187.600	17.650	55.250	0.160
8232	55.475	26.210	32.160	1.350	5.970	190.300	27.030	30.160	0.270
8233	55.475	25.570	35.420	1.230	6.440	190.270	41.270	15.770	0.210
8234	55.475	22.960	37.280	1.120	5.370	188.580	61.990	8.130	0.100
8235	55.475	21.540	38.720	1.450	5.680	181.790	91.800	4.190	0.000
8236	55.475	19.860	42.280	2.170	6.270	162.760	126.150	2.520	0.000
8237	55.475	19.180	44.390	1.320	6.490	137.450	157.600	1.660	0.000
8238	55.475	17.030	47.000	0.660	5.320	105.880	182.600	1.200	0.000
8239	55.475	15.570	48.460	1.840	5.720	75.320	199.010	1.290	0.300
8240	55.475	14.680	50.810	1.170	5.450	48.590	204.370	1.110	1.560
8241	55.475	13.180	52.790	1.640	5.830	30.760	206.240	1.240	2.690
8242	55.475	12.140	55.610	0.940	6.330	19.670	209.990	1.200	3.370
8243	55.475	11.550	58.010	1.250	5.920	12.820	211.150	1.070	4.870
8244	55.475	10.650	62.230	1.880	5.270	8.310	208.200	0.670	9.060
8245	55.475	9.860	62.990	2.390	5.820	5.920	203.840	0.260	17.850
8246	55.475	8.990	67.870	1.790	5.610	3.700	197.390	0.200	29.060
8247	55.475	7.300	67.850	0.920	6.270	2.560	187.260	0.110	42.780
8248	55.475	7.390	68.630	1.760	5.310	1.830	169.170	0.000	60.110
8249	55.475	6.890	71.090	1.420	5.820	1.190	151.810	0.000	84.290
8250	55.475	6.160	72.710	0.700	5.720	0.720	133.020	0.000	116.780
8251	55.475	5.050	75.690	1.160	6.070	0.420	106.450	0.000	148.300
8252	55.475	4.100	74.800	3.020	6.810	0.150	79.220	0.000	171.600
8253	55.475	3.300	76.640	1.240	6.090	0.180	56.810	0.000	188.430
8254	55.475	3.710	74.180	1.400	6.530	0.000	37.400	0.000	197.980
8255	55.475	2.870	74.160	0.340	5.340	0.000	24.060	2.470	199.570
8256	55.475	2.490	76.500	0.400	5.280	0.000	15.880	8.760	195.680
8257	55.475	2.080	76.350	1.050	5.910	0.000	10.300	21.380	186.220
8258	55.475	1.890	81.500	0.390	4.820	0.000	6.640	39.970	168.300
8259	55.475	1.050	81.420	1.150	5.800	0.000	4.350	68.320	142.590
8260	55.475	0.760	81.680	0.920	6.160	0.000	3.190	101.210	116.470
8261	55.475	0.890	80.040	0.010	5.910	0.000	2.110	124.140	89.650
8262	55.475	0.810	81.340	1.080	5.130	0.000	1.490	140.360	61.740
8263	55.475	0.570	81.440	0.090	4.930	0.000	1.100	151.410	44.480
8264	55.475	0.240	86.010	0.000	5.640	0.000	0.840	155.680	33.110
8265	55.475	0.720	88.380	0.480	5.260	0.000	0.520	156.450	23.910
8266	55.475	0.300	90.700	1.160	5.760	1.400	0.140	151.460	17.570
8267	55.475	0.210	93.480	1.870	4.970	4.070	0.020	140.670	13.050
8268	55.475	0.000	94.390	1.970	5.100	8.700	0.000	123.460	9.730
8269	55.475	1.120	99.920	2.400	4.640	17.540	0.000	104.360	7.600
8270	55.475	0.240	102.500	3.990	4.820	28.190	0.000	82.180	6.150
8271	55.475	0.930	99.820	4.570	5.400	40.930	0.000	59.810	5.530
8272	55.475	0.900	102.950	7.250	5.300	54.850	0.250	41.410	5.030
8273	55.475	1.170	102.010	11.120	5.480	66.330	0.400	30.870	4.360
8274	55.475	1.110	106.120	16.210	5.380	77.320	0.350	22.280	3.900
8275	55.475	1.180	107.850	23.860	6.160	85.750	0.390	16.890	3.060
8276	55.475	1.240	106.930	31.860	6.590	90.020	0.400	12.940	2.520
8277	55.475	1.550	106.880	45.440	7.180	92.070	0.250	9.820	1.740
8278	55.475	1.320	104.470	61.550	8.980	89.680	0.270	7.500	1.580
8279	55.475	0.970	100.820	81.110	10.980	81.360	0.250	5.920	1.050
8280	55.475	1.150	94.390	99.490	14.990	71.530	0.020	4.400	0.750
8281	55.475	1.150	89.620	117.770	19.500	60.710	0.000	3.280	0.810
8282	55.475	1.150	79.390	129.670	24.060	48.020	0.000	2.020	0.230
8283	55.475	1.390	73.550	136.770	27.160	36.410	0.000	1.170	0.000
8284	55.475	1.500	66.570	142.590	32.180	26.810	0.000	0.350	0.000
									
8227	61.725	35.580	15.690	0.930	7.510	169.210	4.160	193.540	0.000
8228	61.725	33.200	15.550	2.120	7.480	167.370	5.440	164.810	0.000
8229	61.725	31.480	19.840	1.080	7.720	164.450	7.500	128.090	0.000
8230	61.725	29.000	19.660	1.970	7.200	165.330	11.090	89.030	0.000
8231	61.725	26.190	22.620	1.380	7.540	163.990	16.030	49.950	0.530
8232	61.725	25.990	26.180	2.270	7.220	168.420	25.320	26.500	0.620
8233	61.725	24.730	26.260	1.270	7.680	177.230	40.610	13.010	0.240
8234	61.725	23.150	25.930	1.180	7.350	181.620	64.970	6.620	0.000
8235	61.725	23.830	27.630	0.960	8.120	174.850	98.350	3.750	0.000
8236	61.725	21.100	29.150	0.250	8.060	153.810	131.610	2.210	0.000
8237	61.725	20.730	31.520	1.190	6.970	125.200	158.590	1.710	0.000
8238	61.725	20.140	33.360	1.100	7.430	93.710	184.870	1.370	0.000
8239	61.725	17.770	30.110	0.400	7.010	62.140	193.790	1.500	1.390
8240	61.725	18.010	39.160	0.960	7.690	40.220	195.080	1.490	2.450
8241	61.725	16.040	40.040	1.040	8.490	25.860	200.350	1.400	3.010
8242	61.725	15.020	43.040	1.590	7.630	17.250	205.410	1.260	3.790
8243	61.725	15.090	46.450	0.720	7.840	11.070	204.790	1.250	6.010
8244	61.725	13.380	44.750	1.500	7.260	7.480	198.780	1.040	13.240
8245	61.725	13.100	48.800	1.240	8.470	5.330	190.320	0.660	26.200
8246	61.725	13.020	50.530	1.210	8.060	3.520	178.100	0.670	40.670
8247	61.725	11.670	50.010	0.240	8.350	2.760	154.740	0.340	53.540
8248	61.725	9.920	52.030	1.290	8.470	1.920	134.820	0.000	70.220
8249	61.725	10.440	51.020	0.620	7.610	1.540	118.380	0.000	97.580
8250	61.725	10.400	51.320	1.760	6.940	1.110	100.010	0.000	132.250
8251	61.725	8.440	53.160	0.750	8.700	0.760	76.890	0.000	161.920
8252	61.725	8.840	52.630	0.500	6.700	0.580	56.000	0.000	184.690
8253	61.725	7.610	55.630	0.090	7.160	0.420	37.380	0.000	196.490
8254	61.725	7.540	53.810	0.640	6.980	0.150	23.610	2.190	193.580
8255	61.725	7.700	51.760	1.160	6.160	0.090	16.010	7.750	187.730
8256	61.725	6.920	54.470	1.090	6.280	0.000	10.440	18.730	180.960
8257	61.725	7.030	54.600	2.010	5.320	0.000	6.750	38.600	165.470
8258	61.725	6.870	56.490	1.790	5.860	0.000	4.620	65.640	142.400
8259	61.725	6.260	52.510	2.080	5.420	0.000	3.080	96.230	114.660
8260	61.725	6.620	54.890	0.510	5.990	0.000	2.270	126.130	85.230
8261	61.725	6.850	56.910	1.310	5.540	0.000	1.890	146.020	59.200
8262	61.725	5.420	54.400	1.300	5.900	0.000	1.580	156.390	44.130
8263	61.725	5.220	57.940	1.210	5.250	0.000	1.280	164.370	32.360
8264	61.725	5.180	58.290	1.370	5.470	0.000	0.930	161.220	22.870
8265	61.725	4.390	60.340	0.530	5.490	0.970	0.430	152.780	16.020
8266	61.725	3.960	59.120	1.310	4.810	3.410	0.310	136.900	11.520
8267	61.725	4.160	61.460	1.950	5.100	8.200	0.200	118.640	8.470
8268	61.725	3.150	64.290	2.080	4.260	16.180	0.100	99.220	6.320
8269	61.725	3.830	69.190	3.040	4.460	31.100	0.410	75.410	5.360
8270	61.725	3.230	67.190	4.140	4.950	45.900	0.560	53.420	4.780
8271	61.725	2.810	69.930	5.460	5.140	61.150	0.660	37.970	4.190
8272	61.725	3.300	72.100	8.250	5.400	76.980	0.560	26.530	3.670
8273	61.725	2.910	73.560	11.870	5.680	90.100	0.630	17.770	3.090
8274	61.725	2.530	76.990	17.180	6.080	104.890	0.600	12.220	1.980
8275	61.725	1.100	79.670	22.800	6.420	111.210	0.500	8.440	1.100
8276	61.725	0.920	80.040	30.910	6.930	114.630	0.310	6.180	0.540
8277	61.725	0.870	79.080	45.750	7.840	113.020	0.200	4.480	0.070
8278	61.725	0.260	73.090	66.100	10.620	106.440	0.040	2.670	0.000
8279	61.725	0.020	65.330	82.460	13.830	92.090	0.010	1.820	0.000
8280	61.725	0.160	54.570	99.680	17.410	74.430	0.000	0.870	0.000
8281	61.725	0.000	46.810	115.080	19.310	58.470	0.000	0.320	0.000
8282	61.725	0.000	51.070	127.300	22.530	42.600	0.000	0.000	0.000
8283	61.725	1.450	44.260	140.990	30.890	29.520	0.000	0.000	0.000
8284	61.725	0.110	39.650	146.310	28.560	19.940	0.000	0.000	0.000
									
8227	67.975	33.950	19.300	1.710	7.420	132.440	4.490	192.600	0.000
8228	67.975	29.870	19.080	2.010	7.490	129.750	5.410	160.360	0.000
8229	67.975	30.110	21.330	1.530	7.310	126.780	7.360	121.140	0.000
8230	67.975	28.420	20.460	0.640	7.840	126.360	10.440	81.380	0.130
8231	67.975	27.660	27.360	1.640	9.180	127.580	14.990	48.070	2.110
8232	67.975	25.750	30.340	1.620	9.060	131.020	23.340	26.050	2.490
8233	67.975	26.570	29.010	0.880	9.160	139.180	38.040	12.620	1.710
8234	67.975	21.930	25.680	2.040	8.300	151.870	65.830	6.210	0.330
8235	67.975	19.500	30.110	1.500	8.810	150.110	105.080	3.660	0.240
8236	67.975	20.440	29.880	1.030	7.980	130.830	136.670	2.660	0.180
8237	67.975	23.150	30.920	1.030	7.250	102.590	161.980	1.990	0.100
8238	67.975	17.820	31.210	0.470	6.330	73.140	183.510	1.870	0.440
8239	67.975	18.300	36.090	0.960	6.820	49.440	189.210	1.730	3.310
8240	67.975	16.810	38.380	2.040	6.030	30.110	192.330	1.850	4.530
8241	67.975	16.980	37.520	0.780	6.490	18.380	200.430	1.760	4.350
8242	67.975	15.320	37.940	0.950	7.400	10.730	203.130	1.660	4.780
8243	67.975	15.170	38.010	1.060	5.980	6.790	198.720	1.590	8.900
8244	67.975	15.570	35.050	1.130	7.780	4.380	189.320	1.140	21.930
8245	67.975	9.330	33.860	1.170	7.050	2.750	176.690	0.740	36.840
8246	67.975	12.530	36.350	1.130	8.700	1.680	152.940	0.330	49.430
8247	67.975	12.780	38.210	0.000	8.780	1.140	125.240	0.080	65.880
8248	67.975	10.450	35.870	0.450	8.310	0.820	109.190	0.090	83.640
8249	67.975	10.630	35.890	0.230	9.250	0.490	94.960	0.000	108.710
8250	67.975	11.120	36.600	1.090	6.950	0.260	75.900	0.000	135.760
8251	67.975	10.500	35.840	1.620	9.840	0.290	55.490	0.000	161.310
8252	67.975	13.290	37.660	1.400	8.350	0.280	36.740	0.000	178.790
8253	67.975	11.660	37.620	0.340	7.340	0.000	23.540	0.860	175.260
8254	67.975	10.020	41.520	0.210	7.080	0.000	15.880	5.840	165.930
8255	67.975	9.730	41.540	1.290	6.880	0.000	10.560	16.030	164.850
8256	67.975	7.140	39.640	0.000	7.370	0.000	6.750	34.380	153.460
8257	67.975	6.030	39.690	0.000	8.120	0.000	4.600	58.520	134.780
8258	67.975	9.590	35.440	0.780	6.510	0.000	3.080	84.850	110.040
8259	67.975	6.850	39.440	1.540	6.720	0.000	2.210	108.760	87.130
8260	67.975	7.670	37.850	0.710	7.010	0.000	1.870	132.720	61.050
8261	67.975	6.510	41.080	0.000	5.410	0.000	1.630	148.530	45.760
8262	67.975	8.190	41.170	0.510	5.910	0.000	1.370	156.280	33.810
8263	67.975	7.290	45.090	0.510	6.470	0.000	0.860	157.360	25.300
8264	67.975	6.580	39.870	0.480	4.870	0.000	0.400	149.270	17.660
8265	67.975	6.930	41.200	1.050	7.090	0.450	0.040	129.470	12.400
8266	67.975	3.590	39.360	1.950	7.040	2.630	0.000	111.860	8.710
8267	67.975	5.960	42.220	1.200	4.700	8.070	0.000	93.150	6.550
8268	67.975	5.040	47.080	1.410	5.300	18.660	0.000	73.680	5.650
8269	67.975	6.000	56.260	1.090	6.500	34.040	0.050	53.950	5.490
8270	67.975	7.170	57.080	2.410	5.270	51.670	0.200	36.180	4.930
8271	67.975	7.670	57.060	2.370	4.140	65.370	0.260	24.660	3.950
8272	67.975	7.100	59.410	4.340	5.100	79.570	0.270	16.360	3.250
8273	67.975	3.630	61.350	5.130	5.610	91.530	0.000	10.320	2.310
8274	67.975	5.380	64.040	7.850	7.220	102.270	0.000	6.640	1.630
8275	67.975	2.640	71.030	12.320	6.330	110.360	0.000	4.560	1.100
8276	67.975	4.080	80.400	17.850	7.260	110.780	0.000	2.590	0.170
8277	67.975	4.510	79.460	27.960	7.420	104.320	0.000	1.410	0.560
8278	67.975	1.900	75.660	38.490	8.760	92.440	0.000	0.500	0.150
8279	67.975	2.100	60.280	54.100	12.390	77.400	0.000	0.110	0.240
8280	67.975	0.000	49.170	64.110	13.760	58.240	0.000	0.000	0.000
8281	67.975	0.000	37.330	78.630	15.880	40.780	0.000	0.000	0.000
8282	67.975	0.000	24.940	86.890	21.910	27.650	0.240	0.000	0.000
8283	67.975	0.000	15.110	86.450	24.910	16.490	2.070	0.000	0.000
8284	67.975	0.000	22.280	82.290	33.150	10.220	3.390	0.000	0.000

$$

$external_penalty_data

lin   time   Bcd   Cad   Tll   Hb   Kr   Gt   Kni

1028   -17.150   45.740   48.790   12.270   22.970   -1.000   -1.000   -1.000
1029   -17.150   24.760   74.950   12.320   17.490   -1.000   -1.000   -1.000
1030   -17.150   14.940   96.290   11.900   10.410   -1.000   -1.000   -1.000
1031   -17.150   8.450   105.550   11.240   3.850   -1.000   -1.000   -1.000
1032   -17.150   4.960   98.830   9.200   1.660   -1.000   -1.000   -1.000
1033   -17.150   2.140   80.270   6.760   0.000   -1.000   -1.000   -1.000
1034   -17.150   1.160   70.180   5.990   0.000   -1.000   -1.000   -1.000
1035   -17.150   1.310   46.740   4.370   0.000   -1.000   -1.000   -1.000

2057   -6.200   45.020   53.490   3.350   28.350   6.180   5.380   0.000
2058   -6.200   34.640   72.560   2.830   23.000   6.880   4.550   0.000
2059   -6.200   24.960   86.600   2.240   18.150   6.760   4.090   0.000
2060   -6.200   18.470   99.450   2.070   11.750   6.570   2.900   0.000
2061   -6.200   13.290   113.760   2.960   8.260   5.560   2.660   0.900
2062   -6.200   9.790   124.720   2.440   5.110   4.550   1.550   1.660
2063   -6.200   6.950   124.540   1.930   2.740   3.960   2.210   1.680
2064   -6.200   4.630   129.930   0.750   1.330   3.430   2.500   0.720
2065   -6.200   3.060   126.010   1.600   0.900   2.420   0.500   2.090
2066   -6.200   1.630   122.430   0.000   0.440   1.670   1.480   0.590
2067   -6.200   1.160   116.320   0.000   0.000   1.500   1.140   1.230
2068   -6.200   0.830   113.150   0.370   0.000   0.060   3.320   1.120
2069   -6.200   0.000   102.740   0.000   0.000   0.000   4.150   0.900
2070   -6.200   0.000   98.900   0.540   0.090   0.320   5.330   2.290
2071   -6.200   0.580   84.620   1.820   0.450   0.380   8.800   0.840

4113   0.00   53.288   28.909   3.767   49.822   0.000   0.000   0.000
4114   0.00   43.820   36.335   3.741   45.991   0.000   0.000   0.000
4115   0.00   40.539   40.020   4.132   43.974   0.000   0.000   0.000
4116   0.00   34.109   51.887   3.289   38.058   0.000   0.000   0.000
4117   0.00   31.793   55.963   3.586   35.644   0.000   0.000   0.000
4118   0.00   25.907   65.176   3.172   29.269   0.000   0.000   0.000
4119   0.00   23.850   68.331   3.373   26.156   0.000   0.000   0.000
4120   0.00   19.519   78.055   3.449   18.742   0.000   0.000   0.000
4121   0.00   17.923   82.207   2.787   15.996   0.000   0.000   0.000
4122   0.00   14.418   90.889   2.921   11.536   0.000   0.000   0.000
4123   0.00   13.156   93.318   3.375   10.148   0.000   0.000   0.000
4124   0.00   10.817   100.519   2.880   6.916   0.000   0.000   0.000
4125   0.00   9.808   102.393   2.785   5.898   0.000   0.000   0.000
4126   0.00   7.922   104.755   2.394   3.691   0.000   0.000   0.000
4127   0.00   7.120   105.481   1.088   3.143   0.000   0.000   0.000
4128   0.00   5.642   107.795   0.922   1.856   0.000   0.000   0.000
4129   0.00   4.935   109.877   0.846   1.552   0.000   0.000   0.000
4130   0.00   3.659   106.657   0.921   1.022   0.000   0.000   0.000
4131   0.00   3.173   107.332   1.054   0.863   0.000   0.000   0.000
4132   0.00   2.182   105.317   0.480   0.410   0.000   0.000   0.000
4133   0.00   1.747   103.493   0.082   0.277   0.000   0.000   0.000
4134   0.00   1.269   101.391   0.902   0.000   0.000   0.000   0.000
4135   0.00   1.023   102.224   1.249   0.000   0.000   0.000   0.000
4136   0.00   0.541   99.755   2.415   0.000   0.000   0.000   0.000
4137   0.00   0.358   101.162   3.664   0.000   0.000   0.000   0.000
4138   0.00   0.000   95.719   5.010   0.000   0.000   0.000   0.000
4139   0.00   0.000   95.965   7.755   0.000   0.000   0.000   0.000
4140   0.00   0.170   94.484   10.416   0.057   0.000   0.000   0.000
4141   0.00   0.328   93.878   13.009   0.057   0.000   0.000   0.000
4142   0.00   0.455   84.961   13.585   0.283   0.000   0.000   0.000

4113   10.55   48.640   22.850   3.460   80.130   4.750   20.290   1.420
4114   10.55   42.990   26.150   3.960   76.010   6.460   17.920   1.780
4115   10.55   37.790   31.990   4.580   70.560   8.310   14.700   0.000
4116   10.55   33.700   39.590   3.550   63.680   10.490   10.940   1.310
4117   10.55   30.030   46.050   4.020   57.160   13.130   7.100   2.150
4118   10.55   26.390   52.400   3.710   48.190   16.100   4.800   1.710
4119   10.55   23.130   57.400   4.030   39.780   19.230   3.940   1.790
4120   10.55   20.080   65.260   4.250   30.640   22.330   3.250   2.550
4121   10.55   17.550   71.840   3.200   23.220   23.800   2.840   5.130
4122   10.55   15.040   77.190   2.890   17.110   25.090   3.090   6.910
4123   10.55   13.040   81.040   3.610   13.360   25.800   3.290   10.910
4124   10.55   11.390   86.010   3.130   9.990   24.110   3.540   15.620
4125   10.55   9.790   88.980   2.980   7.240   21.560   3.100   24.340
4126   10.55   8.470   92.830   2.660   5.310   18.890   3.460   33.330
4127   10.55   7.200   93.980   0.590   3.830   14.840   4.080   42.460
4128   10.55   6.220   94.480   1.020   2.750   12.050   4.410   49.620
4129   10.55   5.100   97.780   0.900   1.930   10.120   5.880   47.930
4130   10.55   4.000   94.980   0.520   1.230   7.080   7.930   45.960
4131   10.55   3.230   96.050   0.730   0.800   5.020   7.840   46.140
4132   10.55   2.500   94.960   0.760   0.360   3.620   10.000   36.440
4133   10.55   1.810   92.070   0.130   0.000   2.000   9.940   29.840
4134   10.55   1.330   92.330   1.430   0.000   1.190   12.670   21.270
4135   10.55   0.940   93.650   1.980   0.000   0.620   15.490   17.160
4136   10.55   0.370   91.600   3.610   0.000   0.000   17.050   10.750
4137   10.55   0.080   93.830   5.590   0.000   0.000   16.910   9.760
4138   10.55   0.000   91.320   7.940   0.000   0.000   17.440   9.280
4139   10.55   0.000   91.710   12.290   0.000   0.000   18.940   11.020
4140   10.55   0.270   91.620   16.190   0.000   0.040   18.210   12.300
4141   10.55   0.520   90.660   20.300   0.000   0.740   18.140   10.940
4142   10.55   0.380   84.920   20.460   0.000   0.860   17.480   9.660

8227   24.225   52.620   31.230   1.180   136.580   9.560   55.800   0.250
8228   24.225   48.610   33.880   1.370   132.550   12.150   48.680   0.000
8229   24.225   45.440   36.170   0.600   127.890   14.320   41.440   0.000
8230   24.225   42.940   39.440   0.940   123.350   17.720   34.720   0.000
8231   24.225   40.160   44.950   1.820   119.450   21.850   26.650   0.080
8232   24.225   38.070   47.640   0.970   112.310   27.240   21.230   0.230
8233   24.225   35.630   47.270   1.190   104.020   32.770   15.060   0.000
8234   24.225   33.210   54.980   1.060   95.340   39.420   11.020   0.190
8235   24.225   31.130   58.920   1.330   86.090   46.490   7.750   0.000
8236   24.225   29.130   64.780   1.790   75.350   54.600   5.060   0.270
8237   24.225   26.950   66.310   1.180   64.480   62.140   3.610   0.140
8238   24.225   25.300   70.470   0.710   54.310   67.990   2.900   0.100
8239   24.225   23.610   73.770   1.400   45.230   75.300   2.100   0.270
8240   24.225   21.920   77.090   0.970   36.120   81.640   1.340   0.820
8241   24.225   20.380   82.330   0.730   28.340   86.810   0.940   2.040
8242   24.225   18.960   85.470   0.830   22.030   92.030   0.800   2.010
8243   24.225   17.560   88.180   1.120   17.230   94.530   0.370   3.190
8244   24.225   16.050   91.450   1.510   13.250   95.090   0.550   4.740
8245   24.225   14.800   95.770   1.120   10.380   96.970   0.460   8.470
8246   24.225   13.500   98.130   1.370   7.890   96.210   0.300   9.740
8247   24.225   12.360   99.700   1.880   5.940   95.290   0.020   14.470
8248   24.225   11.430   104.400   1.300   4.660   91.390   0.000   20.240
8249   24.225   10.510   105.380   1.100   3.450   87.120   0.000   27.410
8250   24.225   9.950   108.050   0.780   2.600   80.540   0.000   35.420
8251   24.225   9.050   110.670   1.310   1.780   72.980   0.000   43.340
8252   24.225   8.110   112.240   0.380   1.180   64.820   0.010   52.900
8253   24.225   7.470   113.770   0.750   0.720   55.850   0.330   60.340
8254   24.225   6.960   116.690   0.920   0.280   47.650   0.920   65.790
8255   24.225   6.060   115.990   0.950   0.000   38.910   1.700   72.820
8256   24.225   5.390   116.710   0.440   0.000   31.460   3.410   74.570
8257   24.225   5.030   117.350   0.810   0.000   24.400   4.970   75.590
8258   24.225   4.540   118.080   0.550   0.000   18.830   7.100   75.470
8259   24.225   3.960   118.440   0.740   0.000   15.050   10.140   74.890
8260   24.225   3.570   120.330   0.590   0.000   11.560   14.780   72.440
8261   24.225   3.170   119.000   1.070   0.000   9.110   17.990   67.300
8262   24.225   2.700   119.430   1.370   0.000   7.140   22.630   61.570
8263   24.225   2.480   120.050   0.960   0.000   5.670   29.460   55.640
8264   24.225   2.030   118.600   1.070   0.000   4.280   33.530   49.270
8265   24.225   1.890   119.910   1.670   0.000   3.300   39.870   41.110
8266   24.225   1.550   120.340   1.720   0.000   2.270   45.640   33.590
8267   24.225   1.310   119.150   3.680   0.000   1.910   51.320   27.660
8268   24.225   0.950   115.780   4.480   0.000   1.490   55.860   22.220
8269   24.225   0.830   117.800   5.990   0.000   1.120   59.330   16.940
8270   24.225   0.520   115.540   7.440   0.000   0.620   61.940   12.620
8271   24.225   0.330   114.560   9.420   0.000   0.600   63.250   10.380
8272   24.225   0.340   115.950   12.050   0.000   0.350   65.710   7.100
8273   24.225   0.000   113.890   14.370   0.170   0.000   64.040   5.810
8274   24.225   0.000   111.970   19.410   0.410   0.000   63.030   4.270
8275   24.225   0.000   112.900   24.700   0.910   0.000   60.550   3.050
8276   24.225   0.000   110.720   30.570   1.460   0.000   56.280   2.550
8277   24.225   0.030   113.470   36.180   1.840   0.000   52.030   1.760
8278   24.225   0.090   110.240   42.380   2.350   0.000   48.480   1.350
8279   24.225   0.330   110.410   48.220   2.830   0.120   44.330   1.440
8280   24.225   0.510   108.200   56.150   3.460   0.090   40.900   1.220
8281   24.225   0.700   107.820   61.710   4.040   0.360   37.600   0.760
8282   24.225   0.720   105.200   67.880   4.500   0.500   33.770   0.760
8283   24.225   1.010   103.470   73.750   4.960   0.440   29.990   0.700
8284   24.225   1.010   99.090   73.730   5.210   0.520   26.610   0.010

8227   30.475   43.980   28.360   0.310   164.380   9.220   92.640   0.070
8228   30.475   41.300   30.510   0.900   161.420   12.170   79.730   0.000
8229   30.475   38.990   32.800   1.290   158.630   15.630   64.960   0.080
8230   30.475   36.120   35.950   0.410   152.640   19.990   50.620   0.000
8231   30.475   34.190   39.170   1.200   148.280   26.480   37.380   0.160
8232   30.475   31.870   43.380   0.000   140.580   33.590   26.110   0.800
8233   30.475   29.800   49.350   0.100   130.040   42.400   18.100   0.490
8234   30.475   27.400   50.670   0.880   118.000   53.500   12.610   0.970
8235   30.475   25.530   55.010   0.150   102.680   65.470   8.690   1.100
8236   30.475   24.180   58.610   0.620   86.950   79.860   6.480   1.280
8237   30.475   22.330   63.210   0.980   72.370   92.790   4.610   1.500
8238   30.475   20.490   67.140   0.680   56.200   104.830   3.580   1.150
8239   30.475   18.830   72.470   0.360   43.280   115.040   2.840   1.740
8240   30.475   17.510   74.310   0.680   32.230   124.760   1.970   2.310
8241   30.475   16.080   78.870   0.650   24.170   131.110   1.650   2.450
8242   30.475   14.710   82.440   0.230   18.250   133.270   1.240   3.400
8243   30.475   13.680   85.790   1.430   13.750   136.410   0.770   4.530
8244   30.475   12.300   87.190   0.750   10.360   137.160   0.600   5.910
8245   30.475   11.380   92.650   1.360   7.640   135.860   0.750   9.420
8246   30.475   10.590   94.680   0.870   5.780   131.790   0.760   13.700
8247   30.475   9.560   97.880   1.510   4.500   125.500   0.370   20.550
8248   30.475   8.680   101.170   1.610   3.400   117.620   0.000   29.560
8249   30.475   8.120   102.530   0.770   2.360   108.620   0.090   41.410
8250   30.475   7.370   104.280   0.620   1.660   98.440   0.000   54.070
8251   30.475   6.620   108.130   0.470   1.150   83.940   0.000   68.820
8252   30.475   6.080   108.990   0.570   0.770   70.440   0.000   83.700
8253   30.475   5.380   113.220   1.220   0.430   57.430   0.000   97.760
8254   30.475   4.710   113.300   0.540   0.020   45.440   0.230   109.540
8255   30.475   4.600   115.040   1.130   0.000   35.240   1.190   116.130
8256   30.475   3.850   114.480   0.410   0.000   26.740   2.590   120.800
8257   30.475   3.500   118.200   0.230   0.000   20.390   5.320   121.370
8258   30.475   2.930   117.500   0.000   0.000   14.690   9.140   119.050
8259   30.475   2.530   119.300   0.310   0.000   10.900   14.190   114.270
8260   30.475   2.400   121.480   0.170   0.000   7.850   21.160   106.430
8261   30.475   2.070   122.080   0.000   0.000   5.780   30.690   95.840
8262   30.475   1.770   122.580   0.120   0.000   4.090   39.670   82.020
8263   30.475   1.410   122.110   0.000   0.000   2.710   48.480   70.770
8264   30.475   1.150   124.420   0.230   0.000   2.020   57.460   58.570
8265   30.475   1.010   124.000   0.420   0.000   1.440   65.280   46.430
8266   30.475   0.710   125.540   0.890   0.000   0.710   71.630   35.760
8267   30.475   0.670   122.990   0.730   0.000   0.450   76.750   29.180
8268   30.475   0.300   123.750   1.820   0.000   0.220   79.080   23.030
8269   30.475   0.240   124.850   2.340   0.000   0.160   80.410   17.190
8270   30.475   0.260   124.410   5.010   0.000   0.000   78.170   14.270
8271   30.475   0.000   126.300   8.030   0.590   0.000   74.450   10.500
8272   30.475   0.020   126.170   11.960   1.450   0.000   69.570   8.810
8273   30.475   0.000   126.440   18.040   2.320   0.000   63.310   7.220
8274   30.475   0.000   126.500   26.430   3.890   0.000   56.670   6.120
8275   30.475   0.080   125.460   35.510   5.220   0.000   49.520   5.200
8276   30.475   0.120   126.920   51.230   6.590   0.030   44.100   4.170
8277   30.475   0.370   123.320   65.270   7.720   0.050   38.340   3.320
8278   30.475   0.280   124.990   76.760   8.630   0.090   33.270   3.020
8279   30.475   0.590   124.700   90.140   9.400   0.000   28.130   2.760
8280   30.475   0.740   125.190   99.750   9.450   0.000   24.310   1.970
8281   30.475   0.770   124.170   102.420   10.180   0.070   19.900   1.750
8282   30.475   0.790   119.060   107.010   10.020   0.070   16.650   1.440
8283   30.475   0.770   116.030   110.830   9.530   0.220   13.800   0.900
8284   30.475   0.760   113.220   116.830   9.820   0.340   11.140   0.730

8227   36.725   41.660   21.550   0.970   193.790   5.180   137.350   0.000
8228   36.725   39.070   25.300   1.430   190.730   6.960   119.990   0.000
8229   36.725   37.650   28.060   0.840   188.050   9.000   98.370   0.000
8230   36.725   35.800   33.520   0.000   184.310   11.540   75.020   0.000
8231   36.725   33.320   35.900   0.030   179.980   15.680   53.780   0.000
8232   36.725   31.790   38.570   0.000   173.380   22.040   35.840   0.000
8233   36.725   29.290   41.400   0.100   166.030   31.750   23.550   0.000
8234   36.725   27.820   48.590   0.000   154.490   43.540   15.690   0.000
8235   36.725   25.920   47.870   0.000   139.200   59.590   10.280   0.000
8236   36.725   24.740   52.420   0.480   120.090   78.350   6.330   0.000
8237   36.725   23.450   55.790   0.020   96.920   100.320   4.470   0.000
8238   36.725   21.480   60.380   0.000   75.630   118.810   3.100   0.000
8239   36.725   19.760   64.660   0.190   56.390   134.890   2.000   0.000
8240   36.725   19.020   66.530   0.240   40.120   148.220   1.650   0.000
8241   36.725   17.070   68.420   0.950   29.130   155.990   1.190   0.410
8242   36.725   16.600   71.900   0.630   21.180   159.660   0.760   1.570
8243   36.725   15.180   76.660   0.990   15.480   162.070   0.560   3.160
8244   36.725   14.170   78.880   0.150   10.830   162.450   0.330   5.270
8245   36.725   13.200   81.340   1.090   7.620   161.490   0.220   8.680
8246   36.725   11.850   84.170   1.310   5.730   157.900   0.070   14.800
8247   36.725   11.230   87.000   0.650   3.830   152.670   0.000   24.280
8248   36.725   10.070   90.240   1.290   2.790   144.470   0.000   37.820
8249   36.725   9.130   90.940   0.820   1.990   132.680   0.000   53.630
8250   36.725   7.850   93.030   0.000   1.220   116.720   0.000   74.130
8251   36.725   7.220   94.850   0.000   0.700   97.610   0.000   95.890
8252   36.725   6.660   95.840   0.000   0.240   78.430   0.000   117.020
8253   36.725   5.570   98.250   0.000   0.110   58.990   0.000   136.130
8254   36.725   5.130   98.050   0.130   0.000   43.050   0.000   149.680
8255   36.725   4.710   98.050   0.000   0.000   30.490   1.330   157.060
8256   36.725   3.750   97.930   0.310   0.000   21.050   4.300   159.200
8257   36.725   3.310   100.710   0.000   0.000   14.980   10.480   156.380
8258   36.725   2.920   99.610   0.000   0.000   10.310   19.020   149.960
8259   36.725   2.490   101.980   0.000   0.000   7.220   31.200   136.460
8260   36.725   2.430   102.990   0.000   0.000   5.230   45.340   118.340
8261   36.725   1.940   105.310   0.000   0.000   3.790   61.300   99.360
8262   36.725   1.670   104.610   0.860   0.000   2.750   75.710   81.610
8263   36.725   1.380   105.580   0.000   0.000   1.920   90.020   62.850
8264   36.725   1.340   106.040   0.810   0.000   1.360   100.380   48.550
8265   36.725   1.330   109.840   1.170   0.000   0.980   106.630   37.760
8266   36.725   1.110   109.250   1.740   0.000   0.570   110.610   29.010
8267   36.725   0.820   111.960   3.170   0.000   0.340   109.130   21.740
8268   36.725   0.450   112.600   4.520   0.420   0.270   105.780   16.240
8269   36.725   0.920   112.690   5.790   1.930   0.210   98.740   11.820
8270   36.725   0.340   111.320   8.370   4.250   0.080   88.700   9.010
8271   36.725   1.330   114.170   11.870   6.790   0.070   78.710   6.690
8272   36.725   0.700   114.110   17.340   10.620   0.130   69.420   5.400
8273   36.725   0.580   114.200   24.090   14.190   0.290   59.270   4.440
8274   36.725   0.640   113.860   34.180   17.360   0.270   50.820   3.800
8275   36.725   0.360   113.140   46.590   20.070   0.300   42.260   3.080
8276   36.725   0.870   110.630   67.260   22.890   0.370   35.340   2.460
8277   36.725   0.860   114.080   83.690   24.230   0.290   28.920   2.060
8278   36.725   0.700   108.600   105.820   24.700   0.280   24.220   1.630
8279   36.725   1.360   110.890   118.610   24.380   0.150   19.020   1.600
8280   36.725   1.130   103.060   130.650   23.380   0.220   15.150   1.440
8281   36.725   1.340   97.700   138.590   21.710   0.050   12.240   1.400
8282   36.725   1.330   91.200   142.020   19.830   0.020   8.600   1.170
8283   36.725   1.110   84.730   151.330   17.500   0.000   5.790   0.690
8284   36.725   0.600   78.560   141.650   14.770   0.000   3.690   0.480

8227   42.975   39.800   22.540   0.330   201.480   5.060   176.190   0.000
8228   42.975   37.140   24.930   0.620   201.180   6.090   159.440   0.000
8229   42.975   34.330   28.120   0.000   199.620   7.890   131.700   0.000
8230   42.975   33.520   31.730   0.550   199.760   10.790   100.070   0.000
8231   42.975   31.370   33.780   0.000   199.080   15.030   68.150   0.260
8232   42.975   29.450   35.160   0.000   197.370   21.130   42.460   0.440
8233   42.975   27.130   39.110   0.000   194.520   31.740   23.750   1.550
8234   42.975   25.610   43.130   0.000   185.340   46.520   13.940   1.380
8235   42.975   24.090   46.870   0.060   172.920   67.560   7.810   1.160
8236   42.975   22.570   50.690   0.370   155.090   92.090   4.940   1.540
8237   42.975   21.200   53.130   0.030   129.310   120.580   2.970   1.060
8238   42.975   19.510   56.090   0.000   103.120   147.020   2.010   0.930
8239   42.975   18.510   60.710   0.340   78.350   165.820   1.560   1.470
8240   42.975   17.410   64.270   0.320   54.030   178.120   1.250   2.040
8241   42.975   16.490   66.970   0.000   36.370   185.180   1.220   3.610
8242   42.975   14.500   68.850   0.000   24.880   190.170   0.770   4.610
8243   42.975   13.540   69.510   0.000   16.930   192.560   0.390   6.020
8244   42.975   12.010   69.950   0.250   11.360   194.160   0.310   8.150
8245   42.975   10.840   72.730   0.000   7.860   192.410   0.130   12.520
8246   42.975   10.060   72.580   0.610   5.600   190.270   0.000   19.240
8247   42.975   9.420   78.160   1.240   3.650   185.020   0.000   30.500
8248   42.975   8.210   77.860   0.000   2.520   175.760   0.000   45.970
8249   42.975   7.160   78.650   0.050   1.600   162.510   0.000   64.870
8250   42.975   6.830   79.620   0.000   0.970   144.950   0.000   92.430
8251   42.975   5.790   82.890   0.280   0.430   122.300   0.000   123.410
8252   42.975   5.540   87.710   0.520   0.140   96.920   0.000   149.660
8253   42.975   5.000   86.810   1.070   0.000   71.450   0.000   171.480
8254   42.975   4.280   86.290   0.500   0.000   49.750   0.000   185.620
8255   42.975   3.310   86.500   0.190   0.000   33.490   0.030   192.350
8256   42.975   2.980   88.010   0.000   0.000   22.690   3.170   193.720
8257   42.975   2.840   87.510   0.000   0.000   15.500   9.670   186.770
8258   42.975   2.070   88.760   0.000   0.000   10.890   20.380   175.700
8259   42.975   2.380   90.060   0.220   0.000   7.670   38.280   158.920
8260   42.975   1.700   91.370   0.270   0.000   5.550   61.260   137.310
8261   42.975   1.340   91.770   1.190   0.000   3.970   88.210   112.660
8262   42.975   1.110   93.260   0.720   0.000   2.810   111.380   87.190
8263   42.975   1.120   94.060   1.240   0.000   2.240   129.750   67.550
8264   42.975   0.910   93.580   1.650   0.000   1.930   141.000   51.310
8265   42.975   0.580   94.930   2.120   0.000   1.460   148.070   38.960
8266   42.975   0.460   97.090   1.580   0.000   1.230   152.340   29.150
8267   42.975   0.260   97.800   2.570   0.370   0.910   151.330   22.410
8268   42.975   0.310   97.020   3.540   3.050   0.740   143.830   17.030
8269   42.975   0.240   99.270   6.000   6.620   0.630   132.180   13.110
8270   42.975   0.000   100.940   8.090   11.560   0.640   116.440   9.820
8271   42.975   0.400   102.460   11.510   18.660   0.660   97.220   8.220
8272   42.975   0.340   103.390   13.450   25.560   0.730   77.420   7.000
8273   42.975   0.250   102.420   19.190   32.680   0.730   60.980   6.370
8274   42.975   0.050   102.930   25.600   40.370   0.690   46.910   5.530
8275   42.975   0.150   103.460   33.960   45.920   0.790   37.930   5.270
8276   42.975   0.550   102.810   49.140   50.420   0.760   29.270   4.750
8277   42.975   0.870   100.520   64.890   52.850   0.710   23.470   4.110
8278   42.975   0.520   102.120   88.050   54.110   0.530   18.760   3.310
8279   42.975   0.870   101.280   106.280   52.830   0.440   14.840   2.780
8280   42.975   0.610   98.310   123.370   48.380   0.370   11.220   2.110
8281   42.975   0.730   93.070   140.360   43.860   0.140   8.450   1.920
8282   42.975   0.940   89.960   145.520   37.760   0.090   5.720   1.130
8283   42.975   0.650   86.150   145.780   30.750   0.000   3.650   0.890
8284   42.975   0.770   81.440   152.310   25.570   0.000   2.300   0.500

8227   49.225   40.210   16.340   0.790   193.060   4.050   189.530   0.000
8228   49.225   38.000   18.810   0.470   191.900   5.530   168.020   0.000
8229   49.225   35.880   22.710   0.550   192.190   7.640   136.050   0.000
8230   49.225   34.190   24.460   0.660   193.340   11.030   98.320   0.000
8231   49.225   31.920   26.910   0.340   192.710   16.770   60.650   0.000
8232   49.225   30.770   32.060   1.360   192.300   24.810   33.690   0.140
8233   49.225   29.970   34.480   0.470   189.450   37.810   17.730   0.300
8234   49.225   27.360   37.190   0.280   182.540   56.580   9.120   0.320
8235   49.225   26.620   40.760   0.420   169.050   83.080   5.250   0.070
8236   49.225   24.370   45.130   0.270   149.000   118.080   3.340   0.000
8237   49.225   22.900   49.500   0.010   121.560   149.210   2.300   0.000
8238   49.225   20.770   51.590   0.000   93.580   171.900   1.900   0.000
8239   49.225   19.240   54.100   0.000   65.430   187.830   1.750   0.490
8240   49.225   18.640   53.800   0.000   42.330   195.350   1.720   1.630
8241   49.225   17.550   57.710   0.300   28.330   198.660   1.460   2.710
8242   49.225   16.500   58.250   0.310   18.480   203.180   1.460   3.170
8243   49.225   14.990   61.820   0.010   12.570   205.910   1.230   4.860
8244   49.225   14.090   62.580   0.250   8.560   205.120   1.060   8.340
8245   49.225   12.800   65.190   1.290   5.940   202.570   0.810   16.030
8246   49.225   11.720   68.170   0.160   3.760   197.990   0.670   27.710
8247   49.225   10.890   69.290   0.000   2.400   189.880   0.490   42.620
8248   49.225   9.820   66.880   0.160   1.470   176.290   0.090   62.490
8249   49.225   9.290   72.280   0.890   0.850   159.830   0.000   86.880
8250   49.225   8.510   73.160   0.240   0.430   139.810   0.000   122.690
8251   49.225   7.960   73.960   0.110   0.120   112.800   0.000   157.310
8252   49.225   6.740   76.560   0.840   0.000   83.740   0.000   181.910
8253   49.225   6.310   75.290   0.540   0.000   59.250   0.000   198.100
8254   49.225   4.990   76.840   0.160   0.000   40.230   0.000   204.160
8255   49.225   5.080   77.040   0.350   0.000   25.720   1.160   207.460
8256   49.225   4.720   77.300   0.000   0.000   17.420   5.640   204.180
8257   49.225   4.040   78.980   0.380   0.000   11.630   15.540   196.550
8258   49.225   3.810   79.510   0.010   0.000   7.660   33.770   180.970
8259   49.225   2.780   80.000   0.050   0.000   5.250   60.780   156.840
8260   49.225   3.010   81.810   0.630   0.000   3.620   92.240   124.870
8261   49.225   2.460   80.870   0.080   0.000   2.480   122.450   95.040
8262   49.225   2.210   83.220   0.270   0.000   1.810   142.680   69.170
8263   49.225   2.400   82.530   0.170   0.000   1.600   157.460   50.290
8264   49.225   1.590   82.410   0.270   0.000   1.050   165.870   36.810
8265   49.225   1.550   87.370   0.000   0.000   0.870   168.340   27.760
8266   49.225   1.630   89.360   0.960   0.580   0.480   166.220   20.050
8267   49.225   1.440   91.690   1.430   3.040   0.220   156.810   15.370
8268   49.225   0.910   93.270   2.400   7.130   0.190   141.590   12.160
8269   49.225   1.020   95.630   2.940   13.830   0.110   122.270   9.600
8270   49.225   0.830   94.690   3.220   21.790   0.250   98.000   7.650
8271   49.225   0.780   96.440   5.220   31.500   0.270   75.640   6.370
8272   49.225   1.620   97.720   6.750   40.860   0.450   55.000   5.760
8273   49.225   0.730   96.620   10.680   50.070   0.510   40.160   5.110
8274   49.225   1.650   100.130   15.930   57.060   0.650   30.550   4.380
8275   49.225   1.660   101.680   21.400   63.390   0.640   23.010   3.700
8276   49.225   1.460   100.100   29.620   68.690   0.720   18.140   2.940
8277   49.225   1.460   99.380   41.550   71.720   0.650   14.400   2.460
8278   49.225   0.760   97.470   55.360   70.610   0.590   11.610   1.850
8279   49.225   1.260   93.730   71.800   68.010   0.430   8.780   1.330
8280   49.225   0.820   85.260   87.950   62.270   0.310   6.610   0.650
8281   49.225   0.400   77.880   103.180   54.620   0.160   5.170   0.320
8282   49.225   0.590   70.760   113.150   46.200   0.000   3.550   0.160
8283   49.225   1.300   69.120   125.050   37.000   0.000   1.980   0.000
8284   49.225   1.110   62.070   146.220   29.100   0.000   0.640   0.000

8227   55.475   36.680   20.420   1.140   185.350   4.090   186.170   0.000
8228   55.475   34.120   22.930   1.160   182.050   5.610   163.180   0.000
8229   55.475   32.600   23.280   1.620   184.410   8.280   127.660   0.000
8230   55.475   30.510   23.860   1.310   184.760   11.980   92.730   0.000
8231   55.475   27.630   28.420   1.510   187.600   17.650   55.250   0.160
8232   55.475   26.210   32.160   1.350   190.300   27.030   30.160   0.270
8233   55.475   25.570   35.420   1.230   190.270   41.270   15.770   0.210
8234   55.475   22.960   37.280   1.120   188.580   61.990   8.130   0.100
8235   55.475   21.540   38.720   1.450   181.790   91.800   4.190   0.000
8236   55.475   19.860   42.280   2.170   162.760   126.150   2.520   0.000
8237   55.475   19.180   44.390   1.320   137.450   157.600   1.660   0.000
8238   55.475   17.030   47.000   0.660   105.880   182.600   1.200   0.000
8239   55.475   15.570   48.460   1.840   75.320   199.010   1.290   0.300
8240   55.475   14.680   50.810   1.170   48.590   204.370   1.110   1.560
8241   55.475   13.180   52.790   1.640   30.760   206.240   1.240   2.690
8242   55.475   12.140   55.610   0.940   19.670   209.990   1.200   3.370
8243   55.475   11.550   58.010   1.250   12.820   211.150   1.070   4.870
8244   55.475   10.650   62.230   1.880   8.310   208.200   0.670   9.060
8245   55.475   9.860   62.990   2.390   5.920   203.840   0.260   17.850
8246   55.475   8.990   67.870   1.790   3.700   197.390   0.200   29.060
8247   55.475   7.300   67.850   0.920   2.560   187.260   0.110   42.780
8248   55.475   7.390   68.630   1.760   1.830   169.170   0.000   60.110
8249   55.475   6.890   71.090   1.420   1.190   151.810   0.000   84.290
8250   55.475   6.160   72.710   0.700   0.720   133.020   0.000   116.780
8251   55.475   5.050   75.690   1.160   0.420   106.450   0.000   148.300
8252   55.475   4.100   74.800   3.020   0.150   79.220   0.000   171.600
8253   55.475   3.300   76.640   1.240   0.180   56.810   0.000   188.430
8254   55.475   3.710   74.180   1.400   0.000   37.400   0.000   197.980
8255   55.475   2.870   74.160   0.340   0.000   24.060   2.470   199.570
8256   55.475   2.490   76.500   0.400   0.000   15.880   8.760   195.680
8257   55.475   2.080   76.350   1.050   0.000   10.300   21.380   186.220
8258   55.475   1.890   81.500   0.390   0.000   6.640   39.970   168.300
8259   55.475   1.050   81.420   1.150   0.000   4.350   68.320   142.590
8260   55.475   0.760   81.680   0.920   0.000   3.190   101.210   116.470
8261   55.475   0.890   80.040   0.010   0.000   2.110   124.140   89.650
8262   55.475   0.810   81.340   1.080   0.000   1.490   140.360   61.740
8263   55.475   0.570   81.440   0.090   0.000   1.100   151.410   44.480
8264   55.475   0.240   86.010   0.000   0.000   0.840   155.680   33.110
8265   55.475   0.720   88.380   0.480   0.000   0.520   156.450   23.910
8266   55.475   0.300   90.700   1.160   1.400   0.140   151.460   17.570
8267   55.475   0.210   93.480   1.870   4.070   0.020   140.670   13.050
8268   55.475   0.000   94.390   1.970   8.700   0.000   123.460   9.730
8269   55.475   1.120   99.920   2.400   17.540   0.000   104.360   7.600
8270   55.475   0.240   102.500   3.990   28.190   0.000   82.180   6.150
8271   55.475   0.930   99.820   4.570   40.930   0.000   59.810   5.530
8272   55.475   0.900   102.950   7.250   54.850   0.250   41.410   5.030
8273   55.475   1.170   102.010   11.120   66.330   0.400   30.870   4.360
8274   55.475   1.110   106.120   16.210   77.320   0.350   22.280   3.900
8275   55.475   1.180   107.850   23.860   85.750   0.390   16.890   3.060
8276   55.475   1.240   106.930   31.860   90.020   0.400   12.940   2.520
8277   55.475   1.550   106.880   45.440   92.070   0.250   9.820   1.740
8278   55.475   1.320   104.470   61.550   89.680   0.270   7.500   1.580
8279   55.475   0.970   100.820   81.110   81.360   0.250   5.920   1.050
8280   55.475   1.150   94.390   99.490   71.530   0.020   4.400   0.750
8281   55.475   1.150   89.620   117.770   60.710   0.000   3.280   0.810
8282   55.475   1.150   79.390   129.670   48.020   0.000   2.020   0.230
8283   55.475   1.390   73.550   136.770   36.410   0.000   1.170   0.000
8284   55.475   1.500   66.570   142.590   26.810   0.000   0.350   0.000

8227   61.725   35.580   15.690   0.930   169.210   4.160   193.540   0.000
8228   61.725   33.200   15.550   2.120   167.370   5.440   164.810   0.000
8229   61.725   31.480   19.840   1.080   164.450   7.500   128.090   0.000
8230   61.725   29.000   19.660   1.970   165.330   11.090   89.030   0.000
8231   61.725   26.190   22.620   1.380   163.990   16.030   49.950   0.530
8232   61.725   25.990   26.180   2.270   168.420   25.320   26.500   0.620
8233   61.725   24.730   26.260   1.270   177.230   40.610   13.010   0.240
8234   61.725   23.150   25.930   1.180   181.620   64.970   6.620   0.000
8235   61.725   23.830   27.630   0.960   174.850   98.350   3.750   0.000
8236   61.725   21.100   29.150   0.250   153.810   131.610   2.210   0.000
8237   61.725   20.730   31.520   1.190   125.200   158.590   1.710   0.000
8238   61.725   20.140   33.360   1.100   93.710   184.870   1.370   0.000
8239   61.725   17.770   30.110   0.400   62.140   193.790   1.500   1.390
8240   61.725   18.010   39.160   0.960   40.220   195.080   1.490   2.450
8241   61.725   16.040   40.040   1.040   25.860   200.350   1.400   3.010
8242   61.725   15.020   43.040   1.590   17.250   205.410   1.260   3.790
8243   61.725   15.090   46.450   0.720   11.070   204.790   1.250   6.010
8244   61.725   13.380   44.750   1.500   7.480   198.780   1.040   13.240
8245   61.725   13.100   48.800   1.240   5.330   190.320   0.660   26.200
8246   61.725   13.020   50.530   1.210   3.520   178.100   0.670   40.670
8247   61.725   11.670   50.010   0.240   2.760   154.740   0.340   53.540
8248   61.725   9.920   52.030   1.290   1.920   134.820   0.000   70.220
8249   61.725   10.440   51.020   0.620   1.540   118.380   0.000   97.580
8250   61.725   10.400   51.320   1.760   1.110   100.010   0.000   132.250
8251   61.725   8.440   53.160   0.750   0.760   76.890   0.000   161.920
8252   61.725   8.840   52.630   0.500   0.580   56.000   0.000   184.690
8253   61.725   7.610   55.630   0.090   0.420   37.380   0.000   196.490
8254   61.725   7.540   53.810   0.640   0.150   23.610   2.190   193.580
8255   61.725   7.700   51.760   1.160   0.090   16.010   7.750   187.730
8256   61.725   6.920   54.470   1.090   0.000   10.440   18.730   180.960
8257   61.725   7.030   54.600   2.010   0.000   6.750   38.600   165.470
8258   61.725   6.870   56.490   1.790   0.000   4.620   65.640   142.400
8259   61.725   6.260   52.510   2.080   0.000   3.080   96.230   114.660
8260   61.725   6.620   54.890   0.510   0.000   2.270   126.130   85.230
8261   61.725   6.850   56.910   1.310   0.000   1.890   146.020   59.200
8262   61.725   5.420   54.400   1.300   0.000   1.580   156.390   44.130
8263   61.725   5.220   57.940   1.210   0.000   1.280   164.370   32.360
8264   61.725   5.180   58.290   1.370   0.000   0.930   161.220   22.870
8265   61.725   4.390   60.340   0.530   0.970   0.430   152.780   16.020
8266   61.725   3.960   59.120   1.310   3.410   0.310   136.900   11.520
8267   61.725   4.160   61.460   1.950   8.200   0.200   118.640   8.470
8268   61.725   3.150   64.290   2.080   16.180   0.100   99.220   6.320
8269   61.725   3.830   69.190   3.040   31.100   0.410   75.410   5.360
8270   61.725   3.230   67.190   4.140   45.900   0.560   53.420   4.780
8271   61.725   2.810   69.930   5.460   61.150   0.660   37.970   4.190
8272   61.725   3.300   72.100   8.250   76.980   0.560   26.530   3.670
8273   61.725   2.910   73.560   11.870   90.100   0.630   17.770   3.090
8274   61.725   2.530   76.990   17.180   104.890   0.600   12.220   1.980
8275   61.725   1.100   79.670   22.800   111.210   0.500   8.440   1.100
8276   61.725   0.920   80.040   30.910   114.630   0.310   6.180   0.540
8277   61.725   0.870   79.080   45.750   113.020   0.200   4.480   0.070
8278   61.725   0.260   73.090   66.100   106.440   0.040   2.670   0.000
8279   61.725   0.020   65.330   82.460   92.090   0.010   1.820   0.000
8280   61.725   0.160   54.570   99.680   74.430   0.000   0.870   0.000
8281   61.725   0.000   46.810   115.080   58.470   0.000   0.320   0.000
8282   61.725   0.000   51.070   127.300   42.600   0.000   0.000   0.000
8283   61.725   1.450   44.260   140.990   29.520   0.000   0.000   0.000
8284   61.725   0.110   39.650   146.310   19.940   0.000   0.000   0.000

8227   67.975   33.950   19.300   1.710   132.440   4.490   192.600   0.000
8228   67.975   29.870   19.080   2.010   129.750   5.410   160.360   0.000
8229   67.975   30.110   21.330   1.530   126.780   7.360   121.140   0.000
8230   67.975   28.420   20.460   0.640   126.360   10.440   81.380   0.130
8231   67.975   27.660   27.360   1.640   127.580   14.990   48.070   2.110
8232   67.975   25.750   30.340   1.620   131.020   23.340   26.050   2.490
8233   67.975   26.570   29.010   0.880   139.180   38.040   12.620   1.710
8234   67.975   21.930   25.680   2.040   151.870   65.830   6.210   0.330
8235   67.975   19.500   30.110   1.500   150.110   105.080   3.660   0.240
8236   67.975   20.440   29.880   1.030   130.830   136.670   2.660   0.180
8237   67.975   23.150   30.920   1.030   102.590   161.980   1.990   0.100
8238   67.975   17.820   31.210   0.470   73.140   183.510   1.870   0.440
8239   67.975   18.300   36.090   0.960   49.440   189.210   1.730   3.310
8240   67.975   16.810   38.380   2.040   30.110   192.330   1.850   4.530
8241   67.975   16.980   37.520   0.780   18.380   200.430   1.760   4.350
8242   67.975   15.320   37.940   0.950   10.730   203.130   1.660   4.780
8243   67.975   15.170   38.010   1.060   6.790   198.720   1.590   8.900
8244   67.975   15.570   35.050   1.130   4.380   189.320   1.140   21.930
8245   67.975   9.330   33.860   1.170   2.750   176.690   0.740   36.840
8246   67.975   12.530   36.350   1.130   1.680   152.940   0.330   49.430
8247   67.975   12.780   38.210   0.000   1.140   125.240   0.080   65.880
8248   67.975   10.450   35.870   0.450   0.820   109.190   0.090   83.640
8249   67.975   10.630   35.890   0.230   0.490   94.960   0.000   108.710
8250   67.975   11.120   36.600   1.090   0.260   75.900   0.000   135.760
8251   67.975   10.500   35.840   1.620   0.290   55.490   0.000   161.310
8252   67.975   13.290   37.660   1.400   0.280   36.740   0.000   178.790
8253   67.975   11.660   37.620   0.340   0.000   23.540   0.860   175.260
8254   67.975   10.020   41.520   0.210   0.000   15.880   5.840   165.930
8255   67.975   9.730   41.540   1.290   0.000   10.560   16.030   164.850
8256   67.975   7.140   39.640   0.000   0.000   6.750   34.380   153.460
8257   67.975   6.030   39.690   0.000   0.000   4.600   58.520   134.780
8258   67.975   9.590   35.440   0.780   0.000   3.080   84.850   110.040
8259   67.975   6.850   39.440   1.540   0.000   2.210   108.760   87.130
8260   67.975   7.670   37.850   0.710   0.000   1.870   132.720   61.050
8261   67.975   6.510   41.080   0.000   0.000   1.630   148.530   45.760
8262   67.975   8.190   41.170   0.510   0.000   1.370   156.280   33.810
8263   67.975   7.290   45.090   0.510   0.000   0.860   157.360   25.300
8264   67.975   6.580   39.870   0.480   0.000   0.400   149.270   17.660
8265   67.975   6.930   41.200   1.050   0.450   0.040   129.470   12.400
8266   67.975   3.590   39.360   1.950   2.630   0.000   111.860   8.710
8267   67.975   5.960   42.220   1.200   8.070   0.000   93.150   6.550
8268   67.975   5.040   47.080   1.410   18.660   0.000   73.680   5.650
8269   67.975   6.000   56.260   1.090   34.040   0.050   53.950   5.490
8270   67.975   7.170   57.080   2.410   51.670   0.200   36.180   4.930
8271   67.975   7.670   57.060   2.370   65.370   0.260   24.660   3.950
8272   67.975   7.100   59.410   4.340   79.570   0.270   16.360   3.250
8273   67.975   3.630   61.350   5.130   91.530   0.000   10.320   2.310
8274   67.975   5.380   64.040   7.850   102.270   0.000   6.640   1.630
8275   67.975   2.640   71.030   12.320   110.360   0.000   4.560   1.100
8276   67.975   4.080   80.400   17.850   110.780   0.000   2.590   0.170
8277   67.975   4.510   79.460   27.960   104.320   0.000   1.410   0.560
8278   67.975   1.900   75.660   38.490   92.440   0.000   0.500   0.150
8279   67.975   2.100   60.280   54.100   77.400   0.000   0.110   0.240
8280   67.975   0.000   49.170   64.110   58.240   0.000   0.000   0.000
8281   67.975   0.000   37.330   78.630   40.780   0.000   0.000   0.000
8282   67.975   0.000   24.940   86.890   27.650   0.240   0.000   0.000
8283   67.975   0.000   15.110   86.450   16.490   2.070   0.000   0.000
8284   67.975   0.000   22.280   82.290   10.220   3.390   0.000   0.000

$$


